Wavenumber, 11301_2-16.SPA, 113121_2-22.SPA, 113151_2-22.SPA, 113181_2-22.SPA, 113241_2-22.SPA, 113301_2-22.SPA, 11331_2-16.SPA, 113361_2-22.SPA, 11361_2-16.SPA, 11391_2-22.SPA
1810, 98.3314, 98.5791, 98.7823, 98.5991, 98.7085, 98.6335, 98.5007, 98.5568, 98.6933, 98.9914
1809.94, 98.3383, 98.5844, 98.7829, 98.6013, 98.7137, 98.6321, 98.507, 98.5639, 98.6972, 98.9963
1809.88, 98.347, 98.5936, 98.7845, 98.6022, 98.7211, 98.6317, 98.517, 98.5695, 98.6967, 98.999
1809.82, 98.357, 98.6064, 98.7858, 98.6016, 98.7284, 98.6305, 98.5297, 98.5732, 98.6925, 98.9979
1809.76, 98.3676, 98.6218, 98.7858, 98.6004, 98.7331, 98.6272, 98.5432, 98.5756, 98.6856, 98.992
1809.7, 98.3782, 98.6381, 98.7842, 98.5996, 98.734, 98.6213, 98.5554, 98.5776, 98.6769, 98.9807
1809.64, 98.3886, 98.653, 98.7812, 98.6004, 98.7308, 98.6136, 98.5644, 98.5802, 98.6672, 98.9643
1809.58, 98.3986, 98.6646, 98.7775, 98.6034, 98.7246, 98.6056, 98.5686, 98.5839, 98.6573, 98.9436
1809.52, 98.4078, 98.671, 98.7738, 98.6084, 98.7176, 98.5995, 98.567, 98.5885, 98.6484, 98.9201
1809.46, 98.4158, 98.6717, 98.7704, 98.6146, 98.7124, 98.5971, 98.5596, 98.5934, 98.6413, 98.8955
1809.4, 98.4218, 98.6669, 98.7671, 98.6204, 98.7111, 98.599, 98.5472, 98.5972, 98.6369, 98.872
1809.34, 98.4252, 98.6579, 98.7632, 98.6244, 98.7149, 98.6053, 98.5316, 98.5989, 98.6358, 98.8516
1809.28, 98.4253, 98.6467, 98.758, 98.6257, 98.7236, 98.6145, 98.5148, 98.5976, 98.6378, 98.8361
1809.22, 98.4217, 98.6354, 98.7506, 98.6238, 98.7361, 98.6253, 98.4993, 98.5932, 98.6425, 98.8268
1809.16, 98.4144, 98.6262, 98.7406, 98.6191, 98.7503, 98.636, 98.4872, 98.5865, 98.6488, 98.8242
1809.1, 98.4039, 98.6204, 98.7281, 98.6125, 98.7642, 98.6458, 98.4801, 98.5786, 98.656, 98.8277
1809.04, 98.391, 98.6182, 98.7143, 98.6048, 98.7768, 98.6547, 98.4783, 98.5712, 98.6637, 98.836
1808.98, 98.3769, 98.6192, 98.7005, 98.5971, 98.7875, 98.6631, 98.4813, 98.5656, 98.6719, 98.847
1808.92, 98.3627, 98.6219, 98.6885, 98.5903, 98.797, 98.6716, 98.4876, 98.5629, 98.6807, 98.8585
1808.86, 98.3495, 98.6249, 98.68, 98.5849, 98.8063, 98.6802, 98.4951, 98.5634, 98.6905, 98.8687
1808.8, 98.3381, 98.6266, 98.6761, 98.5812, 98.8158, 98.6884, 98.5018, 98.5672, 98.7008, 98.8766
1808.74, 98.329, 98.626, 98.6771, 98.5795, 98.8252, 98.6948, 98.5062, 98.5737, 98.7106, 98.8825
1808.68, 98.3222, 98.6223, 98.6822, 98.5797, 98.8331, 98.6979, 98.5078, 98.5823, 98.7183, 98.8874
1808.62, 98.3175, 98.6157, 98.6897, 98.5817, 98.8372, 98.6966, 98.5064, 98.5923, 98.7221, 98.893
1808.56, 98.3147, 98.6063, 98.6973, 98.5854, 98.835, 98.6905, 98.503, 98.6027, 98.7209, 98.9006
1808.5, 98.3135, 98.5946, 98.7028, 98.5902, 98.8252, 98.6806, 98.4982, 98.6126, 98.7141, 98.9109
1808.44, 98.3137, 98.5812, 98.7043, 98.5956, 98.8077, 98.6682, 98.4929, 98.621, 98.7024, 98.9232
1808.38, 98.3151, 98.5669, 98.7011, 98.6012, 98.7844, 98.6555, 98.487, 98.6265, 98.6874, 98.9359
1808.32, 98.3175, 98.5527, 98.6938, 98.6063, 98.7586, 98.6441, 98.4802, 98.628, 98.6712, 98.9469
1808.26, 98.3204, 98.5396, 98.6837, 98.6103, 98.7342, 98.6347, 98.472, 98.6245, 98.6557, 98.954
1808.2, 98.3232, 98.5287, 98.673, 98.6124, 98.7145, 98.6274, 98.4616, 98.6156, 98.6427, 98.9561
1808.13, 98.3252, 98.5207, 98.6636, 98.6124, 98.7019, 98.6213, 98.4487, 98.6017, 98.6332, 98.9533
1808.07, 98.3255, 98.5159, 98.6569, 98.6097, 98.6966, 98.615, 98.4336, 98.5842, 98.628, 98.9468
1808.01, 98.3236, 98.5139, 98.6534, 98.6044, 98.6978, 98.6077, 98.4171, 98.565, 98.6273, 98.9391
1807.95, 98.3194, 98.5138, 98.6528, 98.5967, 98.7033, 98.5989, 98.4006, 98.5466, 98.6312, 98.9323
1807.89, 98.3136, 98.5142, 98.6542, 98.5876, 98.7109, 98.5893, 98.3853, 98.5313, 98.6392, 98.9285
1807.83, 98.3072, 98.5142, 98.6562, 98.578, 98.719, 98.5798, 98.3725, 98.5209, 98.6502, 98.928
1807.77, 98.3018, 98.5131, 98.658, 98.5693, 98.7263, 98.572, 98.3629, 98.5164, 98.6627, 98.9301
1807.71, 98.299, 98.511, 98.6589, 98.5625, 98.7322, 98.5673, 98.3565, 98.5179, 98.6743, 98.9328
1807.65, 98.2998, 98.5088, 98.6589, 98.5586, 98.7366, 98.5665, 98.3531, 98.5243, 98.683, 98.934
1807.59, 98.3049, 98.5077, 98.6582, 98.5577, 98.7391, 98.5698, 98.3521, 98.5342, 98.6866, 98.9317
1807.53, 98.3136, 98.5089, 98.6573, 98.5595, 98.7393, 98.5767, 98.3529, 98.5456, 98.684, 98.9251
1807.47, 98.3249, 98.5135, 98.6568, 98.5633, 98.7371, 98.5859, 98.3555, 98.5568, 98.6753, 98.9148
1807.41, 98.3367, 98.5216, 98.6574, 98.5679, 98.7324, 98.5958, 98.3598, 98.5662, 98.6618, 98.9024
1807.35, 98.3469, 98.5331, 98.6596, 98.5723, 98.7262, 98.6044, 98.3663, 98.5728, 98.6457, 98.8903
1807.29, 98.3537, 98.5474, 98.6636, 98.5756, 98.7197, 98.6103, 98.375, 98.5762, 98.6296, 98.8807
1807.23, 98.3557, 98.5634, 98.6694, 98.5773, 98.7147, 98.6121, 98.3859, 98.5765, 98.6159, 98.875
1807.17, 98.3524, 98.5799, 98.6767, 98.5771, 98.7126, 98.6097, 98.3984, 98.5742, 98.6066, 98.8735
1807.11, 98.3441, 98.5956, 98.6848, 98.5747, 98.7142, 98.6037, 98.4111, 98.5701, 98.6024, 98.8754
1807.05, 98.3317, 98.609, 98.6926, 98.5703, 98.7192, 98.5954, 98.4224, 98.5653, 98.6032, 98.8788
1806.99, 98.3167, 98.6189, 98.6995, 98.5636, 98.7265, 98.5871, 98.4306, 98.5607, 98.6078, 98.8821
1806.93, 98.301, 98.6241, 98.7047, 98.5548, 98.7341, 98.5808, 98.4344, 98.5567, 98.6147, 98.8836
1806.87, 98.2862, 98.6241, 98.708, 98.544, 98.7405, 98.5783, 98.433, 98.5538, 98.6219, 98.8827
1806.81, 98.2736, 98.6192, 98.7096, 98.5317, 98.7443, 98.5808, 98.4268, 98.552, 98.6279, 98.8799
1806.75, 98.2641, 98.6104, 98.7095, 98.5188, 98.7455, 98.5882, 98.4164, 98.5512, 98.6314, 98.8761
1806.69, 98.2581, 98.5995, 98.7083, 98.5066, 98.7445, 98.5995, 98.4032, 98.5515, 98.6323, 98.8727
1806.63, 98.2551, 98.5884, 98.706, 98.4966, 98.7424, 98.6132, 98.3888, 98.5529, 98.6309, 98.8708
1806.57, 98.2543, 98.5789, 98.7026, 98.4905, 98.7403, 98.6272, 98.3745, 98.5555, 98.6282, 98.8707
1806.51, 98.2544, 98.5721, 98.6983, 98.4895, 98.7387, 98.6398, 98.3615, 98.5593, 98.6256, 98.8719
1806.45, 98.2539, 98.5679, 98.6932, 98.494, 98.7378, 98.6498, 98.3507, 98.5639, 98.6242, 98.873
1806.39, 98.2519, 98.5659, 98.6881, 98.5037, 98.7369, 98.6562, 98.3429, 98.5686, 98.6243, 98.8727
1806.33, 98.2476, 98.5648, 98.6837, 98.517, 98.7352, 98.6589, 98.3384, 98.5724, 98.6257, 98.8699
1806.27, 98.2414, 98.5633, 98.6809, 98.5317, 98.732, 98.6579, 98.3372, 98.574, 98.6276, 98.864
1806.21, 98.234, 98.5604, 98.6799, 98.5449, 98.7268, 98.6535, 98.3389, 98.5725, 98.6288, 98.856
1806.15, 98.2268, 98.5553, 98.68, 98.5542, 98.7193, 98.6462, 98.3428, 98.5679, 98.6285, 98.847
1806.09, 98.2211, 98.5476, 98.6797, 98.5576, 98.7097, 98.6366, 98.3478, 98.5604, 98.6261, 98.839
1806.03, 98.2179, 98.5374, 98.6772, 98.5546, 98.6979, 98.6255, 98.3527, 98.5513, 98.6215, 98.8332
1805.97, 98.2173, 98.5248, 98.6705, 98.5454, 98.6844, 98.6139, 98.3566, 98.542, 98.6154, 98.83
1805.91, 98.2188, 98.5104, 98.659, 98.5316, 98.6695, 98.603, 98.3587, 98.5337, 98.6083, 98.8289
1805.84, 98.2215, 98.4951, 98.6433, 98.5153, 98.654, 98.594, 98.3594, 98.5271, 98.6008, 98.8284
1805.78, 98.2241, 98.4802, 98.6258, 98.4986, 98.6389, 98.5878, 98.359, 98.5221, 98.5935, 98.8267
1805.72, 98.226, 98.4674, 98.6098, 98.4833, 98.6257, 98.585, 98.3584, 98.5182, 98.5865, 98.8221
1805.66, 98.227, 98.4585, 98.5986, 98.4704, 98.6157, 98.5852, 98.3584, 98.5148, 98.58, 98.8139
1805.6, 98.2274, 98.4549, 98.5949, 98.4605, 98.6101, 98.5878, 98.3593, 98.5113, 98.5743, 98.8024
1805.54, 98.2279, 98.457, 98.5996, 98.4533, 98.6095, 98.5914, 98.3609, 98.5078, 98.5699, 98.789
1805.48, 98.2291, 98.4644, 98.6116, 98.4486, 98.6136, 98.5947, 98.3625, 98.5049, 98.5671, 98.7757
1805.42, 98.2308, 98.4753, 98.6282, 98.4462, 98.6212, 98.5966, 98.3633, 98.5032, 98.566, 98.7643
1805.36, 98.2324, 98.4875, 98.6461, 98.446, 98.6307, 98.5968, 98.3625, 98.5033, 98.5666, 98.7564
1805.3, 98.2326, 98.4984, 98.6617, 98.4481, 98.6402, 98.5957, 98.3597, 98.505, 98.5682, 98.7527
1805.24, 98.2299, 98.5059, 98.6728, 98.4526, 98.6484, 98.5945, 98.355, 98.5078, 98.5702, 98.753
1805.18, 98.2229, 98.5086, 98.6782, 98.4593, 98.6543, 98.5946, 98.3489, 98.5105, 98.5717, 98.7562
1805.12, 98.2113, 98.5065, 98.6784, 98.4677, 98.6581, 98.5977, 98.3422, 98.5119, 98.5723, 98.761
1805.06, 98.1955, 98.5002, 98.6748, 98.4772, 98.6603, 98.6045, 98.3361, 98.5109, 98.5718, 98.7661
1805, 98.177, 98.4915, 98.6695, 98.4867, 98.6618, 98.6151, 98.3312, 98.5072, 98.5704, 98.7703
1804.94, 98.1577, 98.4825, 98.6642, 98.4953, 98.6633, 98.6284, 98.3282, 98.5005, 98.5686, 98.7732
1804.88, 98.1398, 98.4752, 98.6599, 98.5026, 98.6653, 98.6425, 98.3274, 98.491, 98.5669, 98.7751
1804.82, 98.125, 98.4716, 98.6571, 98.5081, 98.6677, 98.6549, 98.3284, 98.479, 98.5652, 98.7767
1804.76, 98.1144, 98.473, 98.6552, 98.5121, 98.6701, 98.6634, 98.331, 98.4648, 98.5638, 98.7791
1804.7, 98.1084, 98.4796, 98.6533, 98.5149, 98.6722, 98.6664, 98.3343, 98.4488, 98.5624, 98.7833
1804.64, 98.1067, 98.4908, 98.6502, 98.5167, 98.6741, 98.6633, 98.3377, 98.4313, 98.5612, 98.7897
1804.58, 98.1088, 98.505, 98.6454, 98.5178, 98.676, 98.6545, 98.3406, 98.4134, 98.5601, 98.798
1804.52, 98.1138, 98.5199, 98.6385, 98.5181, 98.6785, 98.6414, 98.3425, 98.3965, 98.5594, 98.8068
1804.46, 98.1209, 98.5332, 98.6301, 98.5171, 98.6823, 98.6257, 98.3432, 98.3823, 98.5592, 98.8144
1804.4, 98.1293, 98.5429, 98.6212, 98.5145, 98.6875, 98.6091, 98.3424, 98.3723, 98.5592, 98.8188
1804.34, 98.138, 98.5479, 98.613, 98.5097, 98.6939, 98.5932, 98.3401, 98.368, 98.559, 98.8187
1804.28, 98.1463, 98.5483, 98.6068, 98.5028, 98.7004, 98.5789, 98.3357, 98.3697, 98.5577, 98.8139
1804.22, 98.1532, 98.5451, 98.6029, 98.4938, 98.7055, 98.5668, 98.3286, 98.3768, 98.5548, 98.8053
1804.16, 98.1579, 98.5398, 98.6016, 98.4837, 98.7076, 98.5568, 98.3184, 98.388, 98.55, 98.795
1804.1, 98.1596, 98.5339, 98.6021, 98.4735, 98.7057, 98.5487, 98.3046, 98.4016, 98.5437, 98.7849
1804.04, 98.1578, 98.5281, 98.6036, 98.4645, 98.6994, 98.542, 98.2877, 98.4156, 98.5368, 98.7769
1803.98, 98.1525, 98.5228, 98.6052, 98.4577, 98.6893, 98.5367, 98.2687, 98.4285, 98.5306, 98.7716
1803.92, 98.1439, 98.5175, 98.6064, 98.4538, 98.6768, 98.5324, 98.2494, 98.4394, 98.5263, 98.7684
1803.86, 98.1326, 98.5117, 98.6072, 98.4526, 98.6635, 98.5293, 98.2319, 98.448, 98.5246, 98.7658
1803.8, 98.1197, 98.5048, 98.6082, 98.4534, 98.6509, 98.5273, 98.2183, 98.4543, 98.5255, 98.7623
1803.74, 98.1059, 98.4971, 98.6099, 98.4549, 98.6402, 98.5266, 98.2094, 98.4587, 98.528, 98.7567
1803.68, 98.0918, 98.489, 98.6128, 98.4559, 98.632, 98.5268, 98.2054, 98.4619, 98.5307, 98.7487
1803.61, 98.0779, 98.481, 98.6168, 98.4553, 98.6265, 98.5277, 98.205, 98.464, 98.5318, 98.7391
1803.55, 98.0641, 98.4737, 98.6216, 98.4528, 98.6232, 98.5285, 98.2063, 98.4654, 98.5296, 98.7293
1803.49, 98.0502, 98.4673, 98.6263, 98.4489, 98.6216, 98.5284, 98.2069, 98.4659, 98.5233, 98.7208
1803.43, 98.0363, 98.4615, 98.6296, 98.4445, 98.621, 98.5265, 98.2053, 98.465, 98.5127, 98.7145
1803.37, 98.0224, 98.4563, 98.6308, 98.4407, 98.6206, 98.5224, 98.2002, 98.4623, 98.4985, 98.7108
1803.31, 98.0093, 98.4514, 98.6293, 98.4383, 98.6196, 98.516, 98.1917, 98.4572, 98.482, 98.7094
1803.25, 97.9979, 98.447, 98.6252, 98.4373, 98.6172, 98.5079, 98.1803, 98.4496, 98.4651, 98.7097
1803.19, 97.9891, 98.4436, 98.6193, 98.4373, 98.6126, 98.499, 98.1672, 98.44, 98.4496, 98.7112
1803.13, 97.9833, 98.4413, 98.6129, 98.4372, 98.6056, 98.4907, 98.1537, 98.4297, 98.437, 98.7134
1803.07, 97.9806, 98.44, 98.6075, 98.4361, 98.596, 98.4837, 98.141, 98.4208, 98.4283, 98.7161
1803.01, 97.9798, 98.4389, 98.6047, 98.4336, 98.5847, 98.4788, 98.1303, 98.4155, 98.4238, 98.719
1802.95, 97.9798, 98.4365, 98.6057, 98.4299, 98.5728, 98.4756, 98.1225, 98.4157, 98.4228, 98.7214
1802.89, 97.9791, 98.4316, 98.611, 98.4261, 98.5618, 98.4735, 98.118, 98.4226, 98.4242, 98.7224
1802.83, 97.9769, 98.4232, 98.6207, 98.4233, 98.5531, 98.4715, 98.1168, 98.4361, 98.4265, 98.7211
1802.77, 97.9732, 98.4114, 98.6336, 98.4224, 98.5476, 98.4689, 98.1178, 98.4545, 98.4279, 98.7167
1802.71, 97.9687, 98.3978, 98.6482, 98.4237, 98.546, 98.4654, 98.1194, 98.4755, 98.4271, 98.7096
1802.65, 97.9647, 98.3847, 98.6625, 98.4265, 98.5483, 98.4615, 98.1195, 98.4959, 98.4228, 98.7009
1802.59, 97.9622, 98.3749, 98.6749, 98.4292, 98.5539, 98.4584, 98.1159, 98.5126, 98.4147, 98.6923
1802.53, 97.9614, 98.3706, 98.6841, 98.4304, 98.5624, 98.4575, 98.1073, 98.5235, 98.4029, 98.6859
1802.47, 97.9618, 98.3726, 98.6895, 98.4287, 98.5733, 98.4603, 98.0937, 98.5272, 98.388, 98.6831
1802.41, 97.9623, 98.3803, 98.6914, 98.4238, 98.5858, 98.4674, 98.0766, 98.5236, 98.3715, 98.6846
1802.35, 97.9616, 98.3914, 98.6905, 98.4163, 98.5992, 98.4788, 98.0586, 98.5133, 98.3549, 98.6897
1802.29, 97.9588, 98.4027, 98.6878, 98.4076, 98.6123, 98.4935, 98.0425, 98.4981, 98.3399, 98.6968
1802.23, 97.9541, 98.4109, 98.6836, 98.3994, 98.6237, 98.5098, 98.0306, 98.4802, 98.3283, 98.704
1802.17, 97.9484, 98.4138, 98.678, 98.3933, 98.6318, 98.5259, 98.0234, 98.4618, 98.3209, 98.7094
1802.11, 97.9431, 98.4102, 98.6704, 98.3903, 98.6355, 98.54, 98.0203, 98.4455, 98.3181, 98.7114
1802.05, 97.9393, 98.4009, 98.6602, 98.3905, 98.6342, 98.5508, 98.019, 98.4333, 98.3195, 98.7093
1801.99, 97.9374, 98.3877, 98.6469, 98.3933, 98.6286, 98.5577, 98.0171, 98.4267, 98.324, 98.703
1801.93, 97.9364, 98.373, 98.6307, 98.3979, 98.62, 98.5605, 98.0127, 98.4267, 98.3303, 98.6927
1801.87, 97.9348, 98.3594, 98.6129, 98.4029, 98.6106, 98.5595, 98.0053, 98.4327, 98.3372, 98.6788
1801.81, 97.9307, 98.3486, 98.5953, 98.4074, 98.6025, 98.5553, 97.9957, 98.4438, 98.3439, 98.6621
1801.75, 97.9227, 98.3415, 98.5803, 98.4103, 98.5974, 98.5486, 97.9862, 98.4579, 98.3502, 98.6437
1801.69, 97.9106, 98.3377, 98.5698, 98.411, 98.596, 98.5401, 97.9792, 98.4729, 98.3562, 98.6245
1801.63, 97.8953, 98.3363, 98.5653, 98.4092, 98.5979, 98.5301, 97.9764, 98.4867, 98.3619, 98.6058
1801.57, 97.8784, 98.3358, 98.5668, 98.4051, 98.6019, 98.5191, 97.9783, 98.4976, 98.367, 98.5888
1801.51, 97.8618, 98.3352, 98.5737, 98.3993, 98.6068, 98.5078, 97.9837, 98.5044, 98.3711, 98.5742
1801.45, 97.8469, 98.3339, 98.5842, 98.3929, 98.6114, 98.4965, 97.9904, 98.5065, 98.373, 98.5622
1801.39, 97.8343, 98.3317, 98.5964, 98.3875, 98.615, 98.4863, 97.996, 98.5034, 98.372, 98.5529
1801.32, 97.824, 98.3291, 98.6083, 98.3842, 98.6176, 98.478, 97.9983, 98.495, 98.3676, 98.5459
1801.26, 97.8152, 98.3268, 98.6183, 98.3837, 98.6193, 98.4727, 97.9965, 98.4817, 98.3603, 98.5408
1801.2, 97.8077, 98.3252, 98.6254, 98.3859, 98.6203, 98.4712, 97.991, 98.4643, 98.3509, 98.5379
1801.14, 97.8013, 98.3245, 98.6292, 98.3898, 98.6206, 98.4739, 97.9835, 98.4443, 98.3409, 98.5374
1801.08, 97.7963, 98.3242, 98.6296, 98.3939, 98.6198, 98.4808, 97.9761, 98.4239, 98.3313, 98.54
1801.02, 97.793, 98.3238, 98.6265, 98.3966, 98.6176, 98.4908, 97.9709, 98.4059, 98.3225, 98.5459
1800.96, 97.7915, 98.3224, 98.6202, 98.3972, 98.614, 98.5028, 97.9694, 98.3928, 98.3143, 98.555
1800.9, 97.7912, 98.3195, 98.611, 98.3957, 98.6094, 98.515, 97.9719, 98.3866, 98.3057, 98.5663
1800.84, 97.7907, 98.3147, 98.5993, 98.3933, 98.6048, 98.5257, 97.9776, 98.3877, 98.296, 98.5783
1800.78, 97.7884, 98.3083, 98.5859, 98.3922, 98.6015, 98.5338, 97.9852, 98.3954, 98.2847, 98.5891
1800.72, 97.7826, 98.301, 98.5718, 98.3942, 98.6008, 98.5385, 97.9925, 98.4072, 98.2723, 98.5974
1800.66, 97.7726, 98.2935, 98.5584, 98.4007, 98.6035, 98.5401, 97.9975, 98.4201, 98.2604, 98.6022
1800.6, 97.7582, 98.2866, 98.5468, 98.412, 98.6093, 98.5392, 97.9987, 98.4308, 98.2508, 98.6036
1800.54, 97.7402, 98.2812, 98.5379, 98.4267, 98.6176, 98.5371, 97.9948, 98.4373, 98.2454, 98.6023
1800.48, 97.72, 98.2777, 98.5321, 98.4427, 98.6268, 98.5351, 97.9857, 98.4386, 98.2452, 98.5997
1800.42, 97.6989, 98.2763, 98.529, 98.4571, 98.6354, 98.5344, 97.9719, 98.4356, 98.2504, 98.5969
1800.36, 97.678, 98.2768, 98.5274, 98.4676, 98.6423, 98.5357, 97.9545, 98.4302, 98.2598, 98.5947
1800.3, 97.6581, 98.2788, 98.5259, 98.4724, 98.6469, 98.5392, 97.9352, 98.425, 98.2716, 98.5933
1800.24, 97.6397, 98.2813, 98.5231, 98.4711, 98.6494, 98.5444, 97.916, 98.4219, 98.2833, 98.5926
1800.18, 97.623, 98.2835, 98.5182, 98.4645, 98.6503, 98.55, 97.8987, 98.4223, 98.2928, 98.5917
1800.12, 97.6084, 98.2847, 98.5111, 98.4543, 98.6504, 98.5547, 97.8848, 98.426, 98.2984, 98.5899
1800.06, 97.5962, 98.2844, 98.5028, 98.4426, 98.6504, 98.5569, 97.8749, 98.4318, 98.2991, 98.5863
1800, 97.5866, 98.2828, 98.4948, 98.4313, 98.6503, 98.5554, 97.8692, 98.4375, 98.2947, 98.5802
1799.94, 97.5794, 98.2802, 98.489, 98.4219, 98.6498, 98.5497, 97.8665, 98.4411, 98.2859, 98.5713
1799.88, 97.574, 98.2774, 98.4867, 98.4152, 98.6484, 98.54, 97.8652, 98.4409, 98.2737, 98.5594
1799.82, 97.5691, 98.2749, 98.489, 98.4109, 98.6454, 98.5275, 97.8633, 98.4365, 98.2597, 98.5451
1799.76, 97.5637, 98.273, 98.4958, 98.408, 98.6404, 98.5137, 97.8588, 98.4285, 98.2455, 98.5293
1799.7, 97.5567, 98.2716, 98.5064, 98.4049, 98.6335, 98.5004, 97.8498, 98.4187, 98.2324, 98.5134
1799.64, 97.5477, 98.2704, 98.5197, 98.4004, 98.6251, 98.4887, 97.8357, 98.4092, 98.2213, 98.4988
1799.58, 97.5372, 98.2689, 98.5343, 98.3934, 98.6161, 98.4791, 97.8163, 98.4023, 98.2124, 98.4868
1799.52, 97.5262, 98.267, 98.5489, 98.3839, 98.6076, 98.4711, 97.7926, 98.3992, 98.2052, 98.4782
1799.46, 97.5158, 98.265, 98.5624, 98.3726, 98.6003, 98.4633, 97.7661, 98.4001, 98.1987, 98.4729
1799.4, 97.5071, 98.2635, 98.5741, 98.3611, 98.5948, 98.4543, 97.7383, 98.404, 98.1918, 98.4699
1799.34, 97.5002, 98.263, 98.583, 98.3512, 98.5909, 98.4431, 97.7111, 98.409, 98.1835, 98.4681
1799.28, 97.4948, 98.2637, 98.5883, 98.3442, 98.5881, 98.4297, 97.686, 98.4129, 98.1736, 98.466
1799.22, 97.4897, 98.2651, 98.5892, 98.3406, 98.5859, 98.4151, 97.6642, 98.4138, 98.1622, 98.4628
1799.16, 97.4839, 98.2658, 98.5852, 98.34, 98.5835, 98.4013, 97.6466, 98.411, 98.1501, 98.4585
1799.09, 97.4763, 98.2646, 98.5766, 98.341, 98.5809, 98.3908, 97.6338, 98.4049, 98.1379, 98.4541
1799.03, 97.4662, 98.2601, 98.5644, 98.342, 98.5781, 98.386, 97.6259, 98.3969, 98.1266, 98.451
1798.97, 97.4536, 98.2517, 98.5503, 98.3415, 98.5756, 98.3882, 97.6225, 98.3891, 98.1161, 98.4508
1798.91, 97.4388, 98.24, 98.5369, 98.339, 98.5737, 98.3979, 97.6226, 98.3836, 98.1065, 98.455
1798.85, 97.4219, 98.2264, 98.5267, 98.3348, 98.5729, 98.4138, 97.625, 98.3819, 98.0971, 98.464
1798.79, 97.403, 98.2128, 98.5215, 98.3303, 98.5729, 98.434, 97.628, 98.3845, 98.0872, 98.4775
1798.73, 97.382, 98.201, 98.5219, 98.3267, 98.5731, 98.4558, 97.6297, 98.3908, 98.0763, 98.4943
1798.67, 97.3584, 98.1921, 98.5273, 98.3251, 98.5725, 98.4763, 97.6288, 98.3994, 98.0645, 98.513
1798.61, 97.3319, 98.1866, 98.5355, 98.3259, 98.5705, 98.4931, 97.6244, 98.4086, 98.0524, 98.5316
1798.55, 97.3028, 98.1838, 98.5439, 98.3284, 98.5663, 98.5042, 97.6162, 98.4166, 98.0413, 98.5485
1798.49, 97.2718, 98.1831, 98.5495, 98.3314, 98.5602, 98.5086, 97.6043, 98.4225, 98.0328, 98.5618
1798.43, 97.2399, 98.1834, 98.55, 98.3337, 98.5528, 98.5057, 97.5891, 98.4257, 98.0285, 98.5704
1798.37, 97.2085, 98.1842, 98.5443, 98.3345, 98.5453, 98.4962, 97.5713, 98.4264, 98.0296, 98.5729
1798.31, 97.1791, 98.1849, 98.5324, 98.3336, 98.5388, 98.4813, 97.5514, 98.4251, 98.0362, 98.5685
1798.25, 97.1525, 98.1854, 98.5157, 98.3319, 98.5342, 98.4629, 97.5299, 98.4226, 98.047, 98.5572
1798.19, 97.1295, 98.1855, 98.4961, 98.3306, 98.5319, 98.4436, 97.507, 98.4193, 98.0595, 98.5395
1798.13, 97.1104, 98.1849, 98.4757, 98.3305, 98.5317, 98.426, 97.4833, 98.4156, 98.0703, 98.5168
1798.07, 97.0949, 98.1832, 98.4563, 98.3324, 98.5333, 98.4125, 97.4592, 98.4118, 98.0763, 98.4916
1798.01, 97.0831, 98.1804, 98.4388, 98.3359, 98.5362, 98.4047, 97.4352, 98.408, 98.0747, 98.4665
1797.95, 97.0745, 98.1764, 98.4234, 98.3401, 98.5404, 98.4033, 97.4117, 98.4045, 98.0648, 98.4442
1797.89, 97.0686, 98.1715, 98.4094, 98.3435, 98.5461, 98.4073, 97.3893, 98.4015, 98.0475, 98.4266
1797.83, 97.0644, 98.1665, 98.396, 98.3448, 98.5534, 98.415, 97.3681, 98.3994, 98.0253, 98.4143
1797.77, 97.0608, 98.1615, 98.382, 98.3431, 98.5625, 98.4241, 97.3483, 98.3986, 98.0015, 98.4069
1797.71, 97.0565, 98.1568, 98.3671, 98.3383, 98.5732, 98.4321, 97.3297, 98.3993, 97.979, 98.403
1797.65, 97.0502, 98.1517, 98.3514, 98.3306, 98.5847, 98.4376, 97.3126, 98.4012, 97.9596, 98.4005
1797.59, 97.041, 98.1452, 98.3358, 98.3207, 98.5961, 98.4399, 97.2968, 98.4041, 97.9433, 98.3978
1797.53, 97.0287, 98.1359, 98.3219, 98.3094, 98.6062, 98.4397, 97.2825, 98.407, 97.9292, 98.3939
1797.47, 97.0135, 98.1227, 98.3112, 98.2971, 98.6144, 98.4381, 97.2696, 98.4094, 97.9153, 98.3885
1797.41, 96.9961, 98.1053, 98.3049, 98.284, 98.6204, 98.4361, 97.2579, 98.4105, 97.9001, 98.3821
1797.35, 96.9771, 98.0841, 98.3036, 98.2702, 98.6248, 98.4345, 97.2471, 98.4099, 97.8828, 98.3753
1797.29, 96.9572, 98.0606, 98.307, 98.2558, 98.6282, 98.433, 97.237, 98.4076, 97.8638, 98.3684
1797.23, 96.9365, 98.037, 98.3139, 98.2412, 98.6311, 98.4308, 97.2269, 98.404, 97.8445, 98.3613
1797.17, 96.9148, 98.0156, 98.3228, 98.2271, 98.6339, 98.4266, 97.2164, 98.3999, 97.8262, 98.3532
1797.11, 96.8921, 97.9987, 98.3319, 98.2148, 98.6361, 98.4199, 97.205, 98.3963, 97.8102, 98.3431
1797.05, 96.8682, 97.9879, 98.3396, 98.2055, 98.6366, 98.411, 97.1919, 98.3942, 97.7971, 98.3303
1796.99, 96.8434, 97.9839, 98.3453, 98.2005, 98.6344, 98.4012, 97.1767, 98.3944, 97.7867, 98.3144
1796.93, 96.8178, 97.9865, 98.3484, 98.2007, 98.6285, 98.3927, 97.159, 98.3971, 97.7784, 98.2958
1796.86, 96.7914, 97.9942, 98.3493, 98.2064, 98.6185, 98.3875, 97.1388, 98.402, 97.7716, 98.2751
1796.8, 96.764, 98.0051, 98.3482, 98.2174, 98.6048, 98.3871, 97.1167, 98.408, 97.766, 98.2536
1796.74, 96.7344, 98.0166, 98.3456, 98.2329, 98.5884, 98.3912, 97.0941, 98.4134, 97.7615, 98.2321
1796.68, 96.7016, 98.0265, 98.3417, 98.2517, 98.5708, 98.3984, 97.0724, 98.4168, 97.758, 98.2111
1796.62, 96.6645, 98.0332, 98.3367, 98.2722, 98.5534, 98.406, 97.0534, 98.4166, 97.7551, 98.1911
1796.56, 96.6229, 98.0361, 98.3307, 98.2927, 98.5374, 98.4114, 97.0379, 98.4125, 97.7522, 98.1721
1796.5, 96.5778, 98.0359, 98.3239, 98.311, 98.5234, 98.4122, 97.0258, 98.4051, 97.7481, 98.1543
1796.44, 96.5313, 98.0343, 98.3168, 98.3252, 98.5117, 98.4076, 97.0158, 98.396, 97.7419, 98.1383
1796.38, 96.4863, 98.0334, 98.31, 98.3332, 98.5023, 98.3982, 97.0056, 98.3875, 97.7329, 98.1248
1796.32, 96.4457, 98.0354, 98.304, 98.3334, 98.4951, 98.3856, 96.9923, 98.3821, 97.7212, 98.1148
1796.26, 96.4119, 98.0416, 98.2994, 98.3253, 98.4901, 98.3721, 96.974, 98.3814, 97.7072, 98.109
1796.2, 96.3859, 98.0521, 98.2965, 98.3092, 98.4876, 98.3596, 96.9497, 98.3858, 97.692, 98.1077
1796.14, 96.3673, 98.0658, 98.2953, 98.2866, 98.4879, 98.3498, 96.9199, 98.3945, 97.6764, 98.1105
1796.08, 96.3547, 98.0807, 98.2956, 98.2601, 98.4913, 98.3435, 96.8866, 98.4053, 97.661, 98.1168
1796.02, 96.3457, 98.0941, 98.2971, 98.2326, 98.498, 98.3409, 96.8521, 98.4155, 97.6461, 98.1254
1795.96, 96.3379, 98.1037, 98.2992, 98.207, 98.5077, 98.342, 96.8186, 98.4225, 97.6316, 98.1351
1795.9, 96.3288, 98.1079, 98.3013, 98.1853, 98.5195, 98.3467, 96.7877, 98.4247, 97.6173, 98.1449
1795.84, 96.3161, 98.1058, 98.3029, 98.1685, 98.5321, 98.3547, 96.7594, 98.4217, 97.6033, 98.1538
1795.78, 96.2981, 98.0975, 98.303, 98.1563, 98.5437, 98.3659, 96.7332, 98.4141, 97.5898, 98.1612
1795.72, 96.2731, 98.0839, 98.3011, 98.1477, 98.5525, 98.3797, 96.7076, 98.4034, 97.5772, 98.1663
1795.66, 96.2405, 98.066, 98.2969, 98.1413, 98.5568, 98.3953, 96.6815, 98.3909, 97.5657, 98.1687
1795.6, 96.2002, 98.045, 98.2905, 98.1359, 98.5556, 98.4117, 96.6539, 98.3779, 97.5551, 98.1677
1795.54, 96.1534, 98.0222, 98.2827, 98.1309, 98.5484, 98.428, 96.6243, 98.365, 97.545, 98.163
1795.48, 96.1024, 97.9986, 98.2748, 98.1263, 98.5356, 98.4433, 96.5928, 98.3523, 97.5347, 98.1545
1795.42, 96.0502, 97.9752, 98.2682, 98.1224, 98.5184, 98.4571, 96.5594, 98.3395, 97.5238, 98.1424
1795.36, 95.9999, 97.9528, 98.2639, 98.1194, 98.4987, 98.4689, 96.5247, 98.3267, 97.5118, 98.1272
1795.3, 95.9541, 97.9324, 98.2624, 98.1176, 98.4783, 98.4785, 96.4893, 98.3141, 97.4987, 98.1094
1795.24, 95.9141, 97.9149, 98.263, 98.1166, 98.4591, 98.4852, 96.4546, 98.3026, 97.4845, 98.09
1795.18, 95.8799, 97.9008, 98.2644, 98.1162, 98.4427, 98.4882, 96.422, 98.2929, 97.4687, 98.0697
1795.12, 95.8502, 97.8906, 98.2646, 98.1161, 98.4298, 98.4867, 96.3934, 98.2859, 97.4505, 98.0493
1795.06, 95.8231, 97.8843, 98.2622, 98.1161, 98.4209, 98.4801, 96.3704, 98.2821, 97.4284, 98.0293
1795, 95.797, 97.8813, 98.2563, 98.1168, 98.4154, 98.4687, 96.3538, 98.2816, 97.401, 98.0103
1794.94, 95.7703, 97.8806, 98.2473, 98.1184, 98.4126, 98.4535, 96.3429, 98.284, 97.3675, 97.9926
1794.88, 95.7423, 97.8806, 98.2363, 98.1217, 98.4114, 98.4366, 96.336, 98.2888, 97.3279, 97.9762
1794.82, 95.7126, 97.8796, 98.2252, 98.1268, 98.4106, 98.4202, 96.3302, 98.2951, 97.2842, 97.961
1794.76, 95.681, 97.8759, 98.2154, 98.1335, 98.4093, 98.4064, 96.3221, 98.302, 97.2394, 97.9465
1794.7, 95.6474, 97.8684, 98.208, 98.1415, 98.407, 98.3965, 96.3093, 98.3085, 97.1975, 97.9325
1794.64, 95.6118, 97.8564, 98.2027, 98.1501, 98.4038, 98.3904, 96.2901, 98.3134, 97.1621, 97.9187
1794.57, 95.5742, 97.8407, 98.1985, 98.1586, 98.4003, 98.3874, 96.2646, 98.3153, 97.1359, 97.9054
1794.51, 95.5354, 97.8227, 98.1944, 98.1669, 98.3978, 98.3861, 96.2338, 98.3133, 97.1197, 97.8933
1794.45, 95.4964, 97.8045, 98.1893, 98.1746, 98.3972, 98.385, 96.1997, 98.3068, 97.1124, 97.8833
1794.39, 95.4587, 97.7886, 98.1828, 98.1814, 98.3995, 98.3835, 96.1643, 98.296, 97.1113, 97.8762
1794.33, 95.4233, 97.7772, 98.1756, 98.1869, 98.4049, 98.3816, 96.1287, 98.2824, 97.113, 97.8724
1794.27, 95.3909, 97.7717, 98.1687, 98.1901, 98.4129, 98.3799, 96.0934, 98.2678, 97.1141, 97.8716
1794.21, 95.361, 97.7726, 98.1632, 98.19, 98.4226, 98.3794, 96.0582, 98.2549, 97.1122, 97.8728
1794.15, 95.3322, 97.7793, 98.1599, 98.1856, 98.4327, 98.3809, 96.0223, 98.2461, 97.1063, 97.8748
1794.09, 95.3028, 97.7905, 98.1586, 98.1764, 98.4422, 98.3844, 95.9848, 98.243, 97.0967, 97.8764
1794.03, 95.2715, 97.804, 98.1583, 98.1625, 98.4505, 98.3893, 95.9453, 98.2462, 97.0846, 97.8767
1793.97, 95.2377, 97.8177, 98.1578, 98.1448, 98.4575, 98.3947, 95.9038, 98.2547, 97.0717, 97.8755
1793.91, 95.202, 97.8292, 98.1552, 98.1248, 98.4636, 98.3991, 95.861, 98.2667, 97.0595, 97.8734
1793.85, 95.166, 97.8365, 98.1495, 98.1041, 98.4692, 98.4016, 95.8183, 98.2798, 97.0488, 97.8709
1793.79, 95.1314, 97.838, 98.1399, 98.0844, 98.4747, 98.4017, 95.7772, 98.2917, 97.0398, 97.8686
1793.73, 95.0998, 97.8325, 98.1268, 98.0669, 98.4802, 98.3995, 95.7393, 98.3008, 97.0321, 97.8666
1793.67, 95.0717, 97.8198, 98.111, 98.0523, 98.4854, 98.3957, 95.7061, 98.3065, 97.025, 97.8644
1793.61, 95.0465, 97.8002, 98.0936, 98.0412, 98.4895, 98.3912, 95.6785, 98.3091, 97.0177, 97.8612
1793.55, 95.023, 97.7749, 98.0764, 98.0338, 98.4922, 98.3867, 95.6565, 98.3096, 97.0095, 97.8563
1793.49, 94.9997, 97.7458, 98.0607, 98.0299, 98.493, 98.3828, 95.6396, 98.3094, 97.0002, 97.8494
1793.43, 94.975, 97.7151, 98.0478, 98.0297, 98.4915, 98.3795, 95.6268, 98.3093, 96.9896, 97.8409
1793.37, 94.9483, 97.6855, 98.0385, 98.0326, 98.4875, 98.3768, 95.6166, 98.3097, 96.9779, 97.8315
1793.31, 94.9193, 97.6589, 98.0332, 98.0378, 98.4809, 98.3742, 95.6078, 98.3101, 96.9654, 97.8222
1793.25, 94.8883, 97.6369, 98.0317, 98.0445, 98.4714, 98.3714, 95.5994, 98.3098, 96.952, 97.8141
1793.19, 94.8557, 97.6201, 98.0332, 98.0514, 98.4591, 98.3681, 95.5909, 98.3076, 96.9381, 97.8074
1793.13, 94.8216, 97.6085, 98.0369, 98.0573, 98.4445, 98.3642, 95.5818, 98.3028, 96.924, 97.8019
1793.07, 94.7864, 97.6014, 98.0416, 98.0612, 98.4285, 98.3598, 95.5719, 98.2954, 96.9102, 97.797
1793.01, 94.7505, 97.598, 98.0467, 98.0625, 98.4127, 98.3549, 95.5604, 98.286, 96.8973, 97.7916
1792.95, 94.7144, 97.5978, 98.0517, 98.0611, 98.3993, 98.3494, 95.5467, 98.2762, 96.8856, 97.785
1792.89, 94.6791, 97.6002, 98.0567, 98.0568, 98.39, 98.3433, 95.5296, 98.268, 96.8755, 97.7772
1792.83, 94.6458, 97.6053, 98.0621, 98.0499, 98.3863, 98.3364, 95.5084, 98.2633, 96.8667, 97.7686
1792.77, 94.6157, 97.613, 98.0686, 98.0408, 98.3882, 98.3286, 95.4826, 98.2632, 96.8587, 97.7606
1792.71, 94.5896, 97.6231, 98.0766, 98.0299, 98.3947, 98.3203, 95.4527, 98.2683, 96.8509, 97.7549
1792.65, 94.5678, 97.6351, 98.0861, 98.0184, 98.4035, 98.3122, 95.4198, 98.2778, 96.8424, 97.7534
1792.59, 94.5502, 97.6479, 98.0968, 98.0075, 98.4119, 98.3053, 95.3861, 98.2904, 96.8326, 97.7574
1792.53, 94.5361, 97.66, 98.108, 97.9988, 98.4175, 98.3011, 95.3537, 98.3041, 96.8217, 97.7677
1792.47, 94.5248, 97.6699, 98.1186, 97.9937, 98.4186, 98.3006, 95.3248, 98.3167, 96.8097, 97.7837
1792.41, 94.5159, 97.6764, 98.1278, 97.9933, 98.4148, 98.3048, 95.3013, 98.3266, 96.7973, 97.8037
1792.34, 94.5093, 97.6787, 98.1347, 97.9977, 98.4071, 98.314, 95.2844, 98.3323, 96.7852, 97.825
1792.28, 94.505, 97.6766, 98.1386, 98.0057, 98.3971, 98.3276, 95.2745, 98.3332, 96.7741, 97.8445
1792.22, 94.5031, 97.6704, 98.1394, 98.0156, 98.3866, 98.3449, 95.2712, 98.3292, 96.7644, 97.859
1792.16, 94.5035, 97.6606, 98.1369, 98.0252, 98.3776, 98.3645, 95.2733, 98.3209, 96.7563, 97.8663
1792.1, 94.5055, 97.6478, 98.1316, 98.0321, 98.3711, 98.3851, 95.2788, 98.3095, 96.7499, 97.8652
1792.04, 94.5082, 97.6324, 98.1242, 98.0348, 98.3677, 98.4053, 95.285, 98.297, 96.745, 97.8561
1791.98, 94.5103, 97.6148, 98.1158, 98.0326, 98.3671, 98.4238, 95.289, 98.2856, 96.7412, 97.8409
1791.92, 94.5105, 97.5956, 98.1075, 98.0258, 98.3685, 98.4389, 95.2884, 98.2775, 96.7381, 97.822
1791.86, 94.508, 97.5757, 98.1006, 98.0157, 98.3706, 98.4493, 95.2816, 98.2744, 96.7347, 97.8024
1791.8, 94.502, 97.5564, 98.0958, 98.0037, 98.3722, 98.4535, 95.2686, 98.2772, 96.7305, 97.7842
1791.74, 94.4927, 97.5392, 98.0936, 97.9918, 98.3721, 98.4504, 95.2511, 98.2852, 96.7246, 97.7688
1791.68, 94.4805, 97.5255, 98.0938, 97.9817, 98.3694, 98.4396, 95.2319, 98.2967, 96.7171, 97.7564
1791.62, 94.4662, 97.5163, 98.0961, 97.975, 98.3637, 98.4218, 95.2144, 98.3093, 96.7082, 97.7464
1791.56, 94.4508, 97.5114, 98.0996, 97.9729, 98.3553, 98.3986, 95.2017, 98.3199, 96.6989, 97.7379
1791.5, 94.4352, 97.5099, 98.1035, 97.9759, 98.3451, 98.3728, 95.1957, 98.3263, 96.6905, 97.7299
1791.44, 94.42, 97.5102, 98.107, 97.984, 98.3345, 98.3475, 95.197, 98.3269, 96.6844, 97.7217
1791.38, 94.4056, 97.5104, 98.1092, 97.996, 98.325, 98.3258, 95.2042, 98.3216, 96.6814, 97.7134
1791.32, 94.3923, 97.5093, 98.1092, 98.0102, 98.318, 98.3099, 95.2151, 98.3112, 96.6819, 97.7049
1791.26, 94.3801, 97.5066, 98.1062, 98.024, 98.3145, 98.3014, 95.2268, 98.2974, 96.6851, 97.6968
1791.2, 94.3689, 97.5028, 98.0996, 98.0348, 98.3148, 98.3006, 95.2365, 98.2823, 96.69, 97.6896
1791.14, 94.359, 97.4995, 98.0891, 98.0408, 98.3182, 98.3068, 95.242, 98.2678, 96.6953, 97.6839
1791.08, 94.3508, 97.4985, 98.0752, 98.0413, 98.3236, 98.319, 95.2424, 98.2556, 96.6996, 97.6804
1791.02, 94.3446, 97.5009, 98.0591, 98.0371, 98.3291, 98.3355, 95.2374, 98.2467, 96.7025, 97.6798
1790.96, 94.3411, 97.5074, 98.043, 98.0302, 98.333, 98.3546, 95.2282, 98.2418, 96.7036, 97.6829
1790.9, 94.3406, 97.5173, 98.0292, 98.0236, 98.3337, 98.3743, 95.2165, 98.2407, 96.7032, 97.69
1790.84, 94.3431, 97.5293, 98.0196, 98.0199, 98.3307, 98.3929, 95.2047, 98.2429, 96.7018, 97.701
1790.78, 94.3483, 97.5416, 98.0154, 98.0208, 98.3247, 98.4088, 95.1951, 98.2474, 96.6998, 97.7149
1790.72, 94.3557, 97.5526, 98.0164, 98.0265, 98.3171, 98.4207, 95.19, 98.2533, 96.6972, 97.7302
1790.66, 94.3646, 97.5611, 98.0213, 98.0359, 98.3106, 98.4281, 95.1907, 98.2597, 96.6942, 97.7448
1790.6, 94.3744, 97.5668, 98.0281, 98.0467, 98.3078, 98.4309, 95.1979, 98.2659, 96.6909, 97.7566
1790.54, 94.3847, 97.5699, 98.0344, 98.0563, 98.311, 98.4303, 95.2114, 98.2719, 96.6875, 97.764
1790.48, 94.3951, 97.5715, 98.0388, 98.0626, 98.3212, 98.4275, 95.23, 98.278, 96.6847, 97.7663
1790.42, 94.4053, 97.5725, 98.0405, 98.0649, 98.3381, 98.4243, 95.2522, 98.2844, 96.6828, 97.764
1790.36, 94.4153, 97.5742, 98.0399, 98.0637, 98.3597, 98.4221, 95.2766, 98.2916, 96.6825, 97.7584
1790.3, 94.4247, 97.5774, 98.038, 98.0603, 98.3833, 98.422, 95.3019, 98.299, 96.6841, 97.7515
1790.24, 94.4337, 97.5825, 98.036, 98.057, 98.4055, 98.4245, 95.3272, 98.3059, 96.6873, 97.7454
1790.18, 94.4423, 97.5894, 98.0347, 98.0557, 98.4239, 98.4297, 95.3519, 98.3111, 96.6917, 97.7418
1790.11, 94.4513, 97.5972, 98.0343, 98.0577, 98.437, 98.4372, 95.3758, 98.3135, 96.6969, 97.742
1790.05, 94.4618, 97.6047, 98.0345, 98.0632, 98.4449, 98.4461, 95.3985, 98.3126, 96.7022, 97.7464
1789.99, 94.4753, 97.6105, 98.0347, 98.0713, 98.4489, 98.4552, 95.4199, 98.3086, 96.7074, 97.7549
1789.93, 94.493, 97.6137, 98.0343, 98.0805, 98.4511, 98.4628, 95.4397, 98.3029, 96.7128, 97.7668
1789.87, 94.516, 97.614, 98.033, 98.0886, 98.4536, 98.4668, 95.4582, 98.2971, 96.7188, 97.7816
1789.81, 94.5441, 97.6122, 98.031, 98.094, 98.4577, 98.4649, 95.4754, 98.293, 96.7262, 97.7986
1789.75, 94.5762, 97.61, 98.0287, 98.0952, 98.4639, 98.4552, 95.492, 98.2915, 96.736, 97.8171
1789.69, 94.6104, 97.6094, 98.0265, 98.0918, 98.4716, 98.4369, 95.5085, 98.2927, 96.7489, 97.8369
1789.63, 94.644, 97.6127, 98.025, 98.084, 98.4799, 98.4107, 95.5253, 98.2958, 96.7655, 97.8577
1789.57, 94.6748, 97.6213, 98.0242, 98.0729, 98.4871, 98.3788, 95.5424, 98.2996, 96.7859, 97.8795
1789.51, 94.7012, 97.6358, 98.0243, 98.0596, 98.492, 98.3449, 95.5599, 98.3031, 96.8098, 97.9022
1789.45, 94.7229, 97.6554, 98.0249, 98.0455, 98.4936, 98.313, 95.5773, 98.3057, 96.8366, 97.9253
1789.39, 94.7409, 97.6787, 98.0262, 98.0319, 98.4913, 98.2869, 95.5947, 98.3075, 96.8653, 97.9484
1789.33, 94.7574, 97.7037, 98.0281, 98.0199, 98.4851, 98.2691, 95.6124, 98.3092, 96.8948, 97.9703
1789.27, 94.7748, 97.7287, 98.0311, 98.0101, 98.4753, 98.2601, 95.631, 98.3112, 96.924, 97.9897
1789.21, 94.7952, 97.7523, 98.0357, 98.0028, 98.4626, 98.2589, 95.6515, 98.314, 96.9521, 98.0047
1789.15, 94.8197, 97.7735, 98.0425, 97.9982, 98.4483, 98.2632, 95.6746, 98.3176, 96.9782, 98.0141
1789.09, 94.8484, 97.7919, 98.0519, 97.996, 98.4339, 98.2704, 95.7005, 98.3219, 97.0019, 98.017
1789.03, 94.8804, 97.8072, 98.0641, 97.9956, 98.4214, 98.2787, 95.7289, 98.3266, 97.0226, 98.0138
1788.97, 94.914, 97.819, 98.079, 97.9965, 98.4123, 98.2867, 95.7586, 98.332, 97.04, 98.0059
1788.91, 94.948, 97.8272, 98.0962, 97.9982, 98.408, 98.2945, 95.7882, 98.3386, 97.054, 97.9959
1788.85, 94.9814, 97.8318, 98.115, 98.0004, 98.4093, 98.3025, 95.8165, 98.3469, 97.0647, 97.987
1788.79, 95.0143, 97.8331, 98.1345, 98.0036, 98.416, 98.3116, 95.8424, 98.3568, 97.0727, 97.9819
1788.73, 95.0473, 97.8318, 98.154, 98.0085, 98.427, 98.3222, 95.8655, 98.3674, 97.0792, 97.9829
1788.67, 95.0814, 97.8289, 98.1728, 98.0163, 98.4407, 98.3341, 95.8857, 98.377, 97.0858, 97.9906
1788.61, 95.1172, 97.8256, 98.1902, 98.028, 98.4552, 98.3466, 95.9034, 98.3832, 97.0942, 98.0043
1788.55, 95.1547, 97.8226, 98.2059, 98.044, 98.4686, 98.3585, 95.9187, 98.3841, 97.1058, 98.0222
1788.49, 95.1932, 97.8204, 98.2191, 98.0641, 98.4795, 98.3683, 95.9319, 98.379, 97.1213, 98.0419
1788.43, 95.2311, 97.8193, 98.2292, 98.0869, 98.4868, 98.3747, 95.9432, 98.3686, 97.1405, 98.0614
1788.37, 95.2673, 97.8191, 98.2355, 98.1101, 98.4901, 98.3768, 95.9531, 98.3554, 97.1626, 98.0791
1788.31, 95.3004, 97.8198, 98.2374, 98.1314, 98.4891, 98.3743, 95.9622, 98.3431, 97.1862, 98.0941
1788.25, 95.3302, 97.8214, 98.2348, 98.1486, 98.4839, 98.3676, 95.9718, 98.3349, 97.2102, 98.1065
1788.19, 95.357, 97.8239, 98.2283, 98.1603, 98.4741, 98.3579, 95.9832, 98.3332, 97.2337, 98.1164
1788.13, 95.3816, 97.8276, 98.2191, 98.1662, 98.4597, 98.3468, 95.9974, 98.3384, 97.2567, 98.1244
1788.07, 95.4047, 97.8323, 98.2092, 98.167, 98.4405, 98.3362, 96.0152, 98.3489, 97.2795, 98.131
1788.01, 95.4269, 97.8377, 98.2002, 98.1637, 98.417, 98.3278, 96.0363, 98.3621, 97.3027, 98.1367
1787.95, 95.4486, 97.8433, 98.1937, 98.158, 98.3902, 98.3226, 96.0602, 98.3747, 97.3266, 98.1426
1787.89, 95.4701, 97.8485, 98.1898, 98.1512, 98.3621, 98.3209, 96.0858, 98.3842, 97.3504, 98.1499
1787.82, 95.4918, 97.8529, 98.1879, 98.1443, 98.3355, 98.3217, 96.112, 98.3893, 97.3734, 98.1599
1787.76, 95.5144, 97.8565, 98.1865, 98.1383, 98.3137, 98.3238, 96.138, 98.3904, 97.3941, 98.174
1787.7, 95.5389, 97.8593, 98.184, 98.1336, 98.2996, 98.3256, 96.1639, 98.3888, 97.4115, 98.1928
1787.64, 95.5663, 97.8615, 98.1793, 98.1308, 98.295, 98.3261, 96.19, 98.3861, 97.425, 98.2161
1787.58, 95.5972, 97.8632, 98.1727, 98.1301, 98.3, 98.3256, 96.2169, 98.3837, 97.4352, 98.2426
1787.52, 95.6311, 97.8643, 98.1656, 98.1316, 98.313, 98.3251, 96.2451, 98.3825, 97.4432, 98.2701
1787.46, 95.6667, 97.8646, 98.1601, 98.1348, 98.3307, 98.3265, 96.2749, 98.3825, 97.4501, 98.2962
1787.4, 95.702, 97.8636, 98.1587, 98.1387, 98.3496, 98.3317, 96.3058, 98.3833, 97.4573, 98.3188
1787.34, 95.7351, 97.8615, 98.1628, 98.1423, 98.3662, 98.3422, 96.337, 98.3848, 97.4651, 98.3366
1787.28, 95.7648, 97.8586, 98.1727, 98.1442, 98.3787, 98.3581, 96.3676, 98.3868, 97.4735, 98.3495
1787.22, 95.7909, 97.8561, 98.1873, 98.1436, 98.387, 98.3784, 96.3966, 98.3896, 97.4818, 98.3582
1787.16, 95.8148, 97.8552, 98.2047, 98.1405, 98.3927, 98.4013, 96.4236, 98.3937, 97.4891, 98.3636
1787.1, 95.8384, 97.857, 98.2223, 98.1353, 98.3981, 98.4239, 96.4484, 98.3991, 97.4949, 98.3668
1787.04, 95.864, 97.8622, 98.2384, 98.1293, 98.4056, 98.4439, 96.4713, 98.4055, 97.4992, 98.3684
1786.98, 95.893, 97.8708, 98.2517, 98.1236, 98.4162, 98.4593, 96.4927, 98.4115, 97.5029, 98.3688
1786.92, 95.926, 97.8821, 98.262, 98.1194, 98.4296, 98.4688, 96.5132, 98.4155, 97.5071, 98.3683
1786.86, 95.9622, 97.8952, 98.2696, 98.1171, 98.4445, 98.4721, 96.5329, 98.4154, 97.5134, 98.3673
1786.8, 96.0004, 97.909, 98.275, 98.1165, 98.4586, 98.4694, 96.5522, 98.4098, 97.5232, 98.3666
1786.74, 96.0388, 97.9228, 98.2788, 98.1169, 98.4702, 98.4614, 96.5711, 98.3978, 97.5373, 98.3674
1786.68, 96.076, 97.9363, 98.2816, 98.1172, 98.4783, 98.4493, 96.59, 98.3802, 97.5561, 98.3707
1786.62, 96.1112, 97.9497, 98.2837, 98.1166, 98.4831, 98.4344, 96.609, 98.3586, 97.5792, 98.3772
1786.56, 96.1442, 97.9634, 98.2859, 98.1144, 98.4855, 98.4182, 96.6287, 98.3359, 97.6057, 98.3867
1786.5, 96.1749, 97.9774, 98.2889, 98.1105, 98.4868, 98.4022, 96.6491, 98.315, 97.6341, 98.398
1786.44, 96.2032, 97.9917, 98.2934, 98.1054, 98.4882, 98.3879, 96.6704, 98.2987, 97.6631, 98.4096
1786.38, 96.2292, 98.0056, 98.3001, 98.1004, 98.49, 98.3764, 96.6921, 98.2886, 97.691, 98.4197
1786.32, 96.2529, 98.0183, 98.3089, 98.0972, 98.4923, 98.368, 96.7135, 98.2851, 97.7168, 98.4268
1786.26, 96.2743, 98.0289, 98.3191, 98.0975, 98.4948, 98.363, 96.7337, 98.2874, 97.7396, 98.4306
1786.2, 96.294, 98.0368, 98.3296, 98.1031, 98.4974, 98.361, 96.7522, 98.2935, 97.7592, 98.4312
1786.14, 96.3129, 98.0419, 98.339, 98.1148, 98.4998, 98.3615, 96.7686, 98.3013, 97.7755, 98.4301
1786.08, 96.332, 98.0444, 98.3462, 98.1325, 98.5021, 98.3643, 96.7838, 98.3085, 97.7885, 98.4287
1786.02, 96.3524, 98.0452, 98.3506, 98.1544, 98.5043, 98.3691, 96.7989, 98.3133, 97.7986, 98.4289
1785.96, 96.3746, 98.045, 98.3524, 98.1777, 98.506, 98.3759, 96.8152, 98.3149, 97.8057, 98.4319
1785.9, 96.3987, 98.0445, 98.3522, 98.1989, 98.5066, 98.3844, 96.8339, 98.313, 97.8101, 98.4385
1785.84, 96.4241, 98.0442, 98.3508, 98.2146, 98.5053, 98.3937, 96.8552, 98.3077, 97.812, 98.4486
1785.78, 96.4501, 98.0437, 98.3491, 98.2224, 98.5015, 98.4022, 96.8787, 98.2998, 97.812, 98.4617
1785.72, 96.4759, 98.0422, 98.3475, 98.2215, 98.4952, 98.4079, 96.9029, 98.2901, 97.811, 98.4763
1785.66, 96.5006, 98.0389, 98.3464, 98.213, 98.487, 98.4085, 96.9261, 98.2796, 97.8099, 98.491
1785.59, 96.5243, 98.0327, 98.3459, 98.1994, 98.4781, 98.4026, 96.9471, 98.2697, 97.8099, 98.5042
1785.53, 96.5469, 98.0233, 98.3461, 98.184, 98.4697, 98.39, 96.9654, 98.2618, 97.812, 98.5146
1785.47, 96.5685, 98.0107, 98.3472, 98.1696, 98.4631, 98.3724, 96.9816, 98.2572, 97.8164, 98.5218
1785.41, 96.5891, 97.9963, 98.3496, 98.1584, 98.4586, 98.3531, 96.9971, 98.257, 97.8234, 98.5259
1785.35, 96.6086, 97.9815, 98.3537, 98.1511, 98.4561, 98.3364, 97.0136, 98.2616, 97.8327, 98.5275
1785.29, 96.6265, 97.9686, 98.3596, 98.1476, 98.4552, 98.3266, 97.032, 98.2706, 97.8438, 98.5276
1785.23, 96.6422, 97.9594, 98.3673, 98.147, 98.4554, 98.3268, 97.0526, 98.2826, 97.8565, 98.5265
1785.17, 96.6553, 97.9554, 98.377, 98.1486, 98.4565, 98.3382, 97.0744, 98.2956, 97.8702, 98.5241
1785.11, 96.6658, 97.9576, 98.3883, 98.152, 98.4586, 98.3593, 97.0955, 98.3075, 97.8848, 98.5201
1785.05, 96.6738, 97.966, 98.4011, 98.1573, 98.462, 98.387, 97.1141, 98.3164, 97.8998, 98.5134
1784.99, 96.6801, 97.98, 98.4149, 98.1651, 98.4672, 98.4166, 97.1283, 98.3214, 97.915, 98.5039
1784.93, 96.6853, 97.9984, 98.429, 98.1756, 98.4743, 98.4438, 97.1376, 98.3225, 97.9295, 98.4919
1784.87, 96.6904, 98.0196, 98.4422, 98.189, 98.4828, 98.4651, 97.1419, 98.3208, 97.943, 98.479
1784.81, 96.6957, 98.0416, 98.4529, 98.2047, 98.4921, 98.4791, 97.1423, 98.3176, 97.9548, 98.4676
1784.75, 96.7014, 98.0623, 98.4591, 98.2215, 98.5014, 98.4862, 97.1399, 98.3148, 97.9647, 98.46
1784.69, 96.7071, 98.0799, 98.4589, 98.2383, 98.5101, 98.4881, 97.1362, 98.3135, 97.9728, 98.4578
1784.63, 96.7122, 98.093, 98.451, 98.2538, 98.5177, 98.4874, 97.1321, 98.3145, 97.9791, 98.4613
1784.57, 96.716, 98.1006, 98.4351, 98.2668, 98.5241, 98.4862, 97.1285, 98.3181, 97.984, 98.4693
1784.51, 96.718, 98.1033, 98.4118, 98.2768, 98.5292, 98.486, 97.1261, 98.3241, 97.9876, 98.4794
1784.45, 96.7181, 98.1022, 98.3831, 98.2835, 98.5328, 98.4869, 97.126, 98.3322, 97.9901, 98.4891
1784.39, 96.7166, 98.0994, 98.3518, 98.2871, 98.5347, 98.4881, 97.1294, 98.3419, 97.9919, 98.4963
1784.33, 96.7145, 98.0973, 98.3207, 98.2879, 98.5342, 98.4884, 97.1375, 98.3523, 97.9937, 98.4999
1784.27, 96.7128, 98.0979, 98.2929, 98.2867, 98.5308, 98.4868, 97.1513, 98.3628, 97.9968, 98.4999
1784.21, 96.7127, 98.1023, 98.2709, 98.284, 98.5242, 98.4827, 97.1713, 98.3722, 98.0028, 98.4973
1784.15, 96.7152, 98.1106, 98.2562, 98.2801, 98.5143, 98.4763, 97.1968, 98.3792, 98.0131, 98.493
1784.09, 96.7209, 98.1215, 98.2499, 98.2753, 98.5019, 98.469, 97.2265, 98.3829, 98.0286, 98.4881
1784.03, 96.7302, 98.1337, 98.2522, 98.2693, 98.4879, 98.4622, 97.2579, 98.3824, 98.0493, 98.483
1783.97, 96.7431, 98.1453, 98.2626, 98.2617, 98.4737, 98.4577, 97.2883, 98.3773, 98.0736, 98.4779
1783.91, 96.7595, 98.155, 98.2798, 98.252, 98.4606, 98.4566, 97.315, 98.3678, 98.0991, 98.4729
1783.85, 96.7794, 98.1623, 98.302, 98.2405, 98.4497, 98.4593, 97.3357, 98.3548, 98.1226, 98.4685
1783.79, 96.8021, 98.167, 98.3269, 98.2277, 98.4415, 98.4651, 97.3493, 98.3395, 98.1409, 98.4658
1783.73, 96.8272, 98.1697, 98.3518, 98.2149, 98.4362, 98.4724, 97.3556, 98.3232, 98.1522, 98.4659
1783.67, 96.8534, 98.1709, 98.3741, 98.2038, 98.4334, 98.479, 97.3555, 98.3072, 98.1557, 98.4697
1783.61, 96.8792, 98.1716, 98.3917, 98.1959, 98.4326, 98.4828, 97.3508, 98.2928, 98.1522, 98.4777
1783.55, 96.9031, 98.1726, 98.4028, 98.1923, 98.4335, 98.4822, 97.3435, 98.2814, 98.1437, 98.4898
1783.49, 96.9236, 98.175, 98.4067, 98.1929, 98.4358, 98.4768, 97.3352, 98.2738, 98.1325, 98.5051
1783.43, 96.9398, 98.1796, 98.4035, 98.1969, 98.44, 98.4673, 97.3274, 98.2711, 98.1211, 98.5225
1783.36, 96.9519, 98.1873, 98.394, 98.2029, 98.447, 98.4551, 97.3205, 98.2738, 98.111, 98.5409
1783.3, 96.9605, 98.1978, 98.3797, 98.2096, 98.4574, 98.4424, 97.3143, 98.2817, 98.1031, 98.5594
1783.24, 96.967, 98.2101, 98.3627, 98.2161, 98.4719, 98.4315, 97.3083, 98.2942, 98.0978, 98.5774
1783.18, 96.973, 98.2221, 98.3452, 98.2224, 98.4899, 98.4241, 97.3019, 98.3096, 98.0948, 98.5942
1783.12, 96.9793, 98.2311, 98.3296, 98.229, 98.5101, 98.4213, 97.2953, 98.326, 98.0939, 98.6089
1783.06, 96.9864, 98.2343, 98.3178, 98.2367, 98.5304, 98.4233, 97.2891, 98.3412, 98.0949, 98.6206
1783, 96.9938, 98.2297, 98.3115, 98.2456, 98.5483, 98.4296, 97.2842, 98.3537, 98.0979, 98.6283
1782.94, 97.0007, 98.217, 98.3115, 98.2553, 98.5619, 98.4392, 97.2821, 98.3626, 98.1029, 98.6314
1782.88, 97.0064, 98.1979, 98.3176, 98.2644, 98.5702, 98.4508, 97.2839, 98.3682, 98.1099, 98.6303
1782.82, 97.0106, 98.175, 98.3289, 98.2714, 98.5738, 98.4625, 97.2902, 98.3717, 98.1187, 98.6261
1782.76, 97.0138, 98.1521, 98.3438, 98.2749, 98.5747, 98.4727, 97.3008, 98.3752, 98.1287, 98.6206
1782.7, 97.017, 98.1324, 98.3602, 98.2744, 98.5751, 98.4796, 97.3151, 98.3806, 98.1395, 98.6157
1782.64, 97.0217, 98.1181, 98.3761, 98.2703, 98.5773, 98.4817, 97.3318, 98.3894, 98.1507, 98.613
1782.58, 97.0293, 98.1098, 98.39, 98.2644, 98.5825, 98.4785, 97.3498, 98.4026, 98.162, 98.6131
1782.52, 97.0405, 98.1068, 98.4011, 98.2588, 98.5907, 98.4701, 97.368, 98.4197, 98.1735, 98.6161
1782.46, 97.0551, 98.1074, 98.409, 98.2557, 98.6006, 98.4578, 97.3856, 98.4398, 98.1851, 98.621
1782.4, 97.0718, 98.1098, 98.4144, 98.2565, 98.6105, 98.4441, 97.4017, 98.4612, 98.1965, 98.6268
1782.34, 97.0889, 98.1124, 98.4178, 98.2621, 98.6188, 98.4314, 97.4156, 98.4818, 98.2074, 98.6324
1782.28, 97.104, 98.1145, 98.42, 98.2724, 98.6247, 98.4222, 97.4264, 98.4999, 98.2166, 98.637
1782.22, 97.1154, 98.1161, 98.4213, 98.2867, 98.6281, 98.4179, 97.4335, 98.5138, 98.223, 98.6403
1782.16, 97.1219, 98.1177, 98.4217, 98.3036, 98.6297, 98.4189, 97.4366, 98.5222, 98.2256, 98.6421
1782.1, 97.1233, 98.1203, 98.4206, 98.3214, 98.6303, 98.4246, 97.4359, 98.5244, 98.2237, 98.6421
1782.04, 97.1205, 98.1249, 98.4172, 98.3383, 98.6301, 98.4341, 97.4324, 98.52, 98.2177, 98.6404
1781.98, 97.1152, 98.1323, 98.4111, 98.3521, 98.6291, 98.4461, 97.4277, 98.5092, 98.2088, 98.6371
1781.92, 97.1091, 98.1432, 98.4024, 98.3606, 98.6264, 98.4603, 97.4237, 98.4923, 98.1991, 98.6326
1781.86, 97.104, 98.1577, 98.3923, 98.3623, 98.6216, 98.4764, 97.4222, 98.4704, 98.1907, 98.6278
1781.8, 97.1007, 98.1753, 98.3826, 98.3563, 98.6143, 98.4944, 97.4245, 98.4449, 98.1853, 98.6237
1781.74, 97.099, 98.1946, 98.3761, 98.3428, 98.6049, 98.5138, 97.4313, 98.4177, 98.1836, 98.6211
1781.68, 97.0981, 98.214, 98.3754, 98.3234, 98.5948, 98.5331, 97.4427, 98.3912, 98.1855, 98.6203
1781.62, 97.0967, 98.2316, 98.382, 98.3008, 98.5854, 98.5504, 97.4579, 98.3675, 98.1894, 98.621
1781.56, 97.0936, 98.246, 98.3965, 98.2782, 98.5784, 98.5631, 97.4759, 98.3487, 98.1936, 98.6218
1781.5, 97.0885, 98.2564, 98.4176, 98.2588, 98.5747, 98.5693, 97.4953, 98.3364, 98.1962, 98.6212
1781.44, 97.0819, 98.263, 98.4424, 98.2449, 98.5748, 98.5684, 97.5145, 98.3308, 98.1962, 98.6175
1781.38, 97.0753, 98.2666, 98.4677, 98.2382, 98.5784, 98.5612, 97.5318, 98.3314, 98.1933, 98.6099
1781.32, 97.0707, 98.2682, 98.4902, 98.2388, 98.5847, 98.5498, 97.5455, 98.3366, 98.1882, 98.5985
1781.26, 97.0698, 98.2685, 98.5078, 98.2458, 98.5926, 98.5372, 97.5542, 98.344, 98.1824, 98.5844
1781.2, 97.074, 98.2678, 98.52, 98.2575, 98.601, 98.5259, 97.5567, 98.3514, 98.1772, 98.5692
1781.14, 97.0835, 98.2654, 98.5275, 98.2717, 98.6088, 98.517, 97.5528, 98.3568, 98.1739, 98.5551
1781.07, 97.0978, 98.2607, 98.5318, 98.2864, 98.6149, 98.5106, 97.5431, 98.3594, 98.1732, 98.5434
1781.01, 97.1153, 98.2532, 98.5343, 98.2995, 98.6187, 98.5056, 97.5292, 98.3593, 98.1753, 98.5353
1780.95, 97.1343, 98.2434, 98.5356, 98.3095, 98.6195, 98.5003, 97.5133, 98.3576, 98.1801, 98.5312
1780.89, 97.1526, 98.2327, 98.5355, 98.3157, 98.6173, 98.4938, 97.4981, 98.3562, 98.1868, 98.5308
1780.83, 97.1686, 98.2232, 98.5325, 98.3181, 98.6129, 98.4858, 97.4858, 98.3567, 98.1947, 98.5336
1780.77, 97.1806, 98.2167, 98.5254, 98.3172, 98.607, 98.4767, 97.4784, 98.3602, 98.2028, 98.5388
1780.71, 97.1874, 98.2141, 98.5131, 98.314, 98.6011, 98.4675, 97.4766, 98.3671, 98.2099, 98.5455
1780.65, 97.1879, 98.2149, 98.4961, 98.3097, 98.5963, 98.4588, 97.4798, 98.3767, 98.2151, 98.5526
1780.59, 97.1818, 98.2172, 98.4754, 98.3048, 98.5934, 98.4503, 97.4867, 98.3879, 98.2176, 98.5589
1780.53, 97.1689, 98.2183, 98.4534, 98.2995, 98.5925, 98.4411, 97.4946, 98.3992, 98.217, 98.5634
1780.47, 97.1501, 98.2158, 98.4322, 98.2935, 98.5932, 98.4299, 97.5009, 98.4096, 98.2137, 98.5652
1780.41, 97.1269, 98.2083, 98.4135, 98.2863, 98.5948, 98.416, 97.5027, 98.4179, 98.2088, 98.5638
1780.35, 97.1014, 98.1959, 98.3982, 98.2777, 98.5964, 98.3995, 97.4983, 98.4237, 98.2036, 98.5592
1780.29, 97.0758, 98.1802, 98.3861, 98.2679, 98.5976, 98.382, 97.4869, 98.4265, 98.1993, 98.5521
1780.23, 97.0526, 98.1638, 98.3767, 98.258, 98.5978, 98.3661, 97.4691, 98.4259, 98.1965, 98.5434
1780.17, 97.0331, 98.149, 98.3693, 98.2492, 98.5971, 98.3547, 97.4471, 98.4217, 98.1949, 98.5344
1780.11, 97.0183, 98.1378, 98.3633, 98.2424, 98.5953, 98.3507, 97.4239, 98.4134, 98.1934, 98.5261
1780.05, 97.0079, 98.1309, 98.3587, 98.238, 98.5924, 98.3557, 97.4024, 98.4013, 98.1905, 98.5196
1779.99, 97.0006, 98.1282, 98.3556, 98.2351, 98.588, 98.37, 97.3854, 98.3861, 98.1846, 98.5152
1779.93, 96.9949, 98.1289, 98.3542, 98.2322, 98.5819, 98.3921, 97.3743, 98.3692, 98.1749, 98.5129
1779.87, 96.9887, 98.1325, 98.3547, 98.2275, 98.5737, 98.4195, 97.3688, 98.3526, 98.1613, 98.5123
1779.81, 96.981, 98.1387, 98.3572, 98.2198, 98.5634, 98.449, 97.3676, 98.3383, 98.1449, 98.5128
1779.75, 96.9712, 98.1475, 98.3619, 98.209, 98.5512, 98.477, 97.3683, 98.3278, 98.1272, 98.5136
1779.69, 96.9597, 98.1594, 98.369, 98.1963, 98.5373, 98.5003, 97.3682, 98.322, 98.1097, 98.5138
1779.63, 96.9479, 98.1742, 98.3787, 98.1842, 98.5221, 98.5166, 97.3654, 98.3207, 98.0936, 98.513
1779.57, 96.9377, 98.1917, 98.3912, 98.1755, 98.5062, 98.5249, 97.3586, 98.3226, 98.0796, 98.511
1779.51, 96.9305, 98.2104, 98.4062, 98.1723, 98.4901, 98.5254, 97.3476, 98.326, 98.0679, 98.5076
1779.45, 96.927, 98.2286, 98.4225, 98.1759, 98.4745, 98.52, 97.3332, 98.3294, 98.0585, 98.5029
1779.39, 96.9267, 98.2444, 98.4383, 98.186, 98.4605, 98.5114, 97.3164, 98.3316, 98.0513, 98.4966
1779.33, 96.9279, 98.2561, 98.4512, 98.2012, 98.4493, 98.5027, 97.2992, 98.3323, 98.0464, 98.4883
1779.27, 96.9283, 98.2624, 98.4588, 98.2196, 98.4421, 98.4967, 97.283, 98.3318, 98.044, 98.4771
1779.21, 96.926, 98.2631, 98.4599, 98.2392, 98.4401, 98.4948, 97.2694, 98.3311, 98.0439, 98.4626
1779.15, 96.9195, 98.2587, 98.4546, 98.2583, 98.4437, 98.4971, 97.2598, 98.3311, 98.0455, 98.4445
1779.09, 96.9093, 98.25, 98.4445, 98.2758, 98.4524, 98.5021, 97.2551, 98.3323, 98.0477, 98.4236
1779.03, 96.8969, 98.238, 98.4326, 98.2908, 98.4649, 98.5077, 97.2557, 98.3345, 98.0488, 98.4016
1778.97, 96.8847, 98.2239, 98.4222, 98.3027, 98.4792, 98.5115, 97.2614, 98.3369, 98.0471, 98.381
1778.91, 96.8747, 98.2084, 98.4159, 98.3106, 98.4927, 98.5122, 97.2712, 98.3383, 98.0413, 98.3645
1778.84, 96.8679, 98.1923, 98.4148, 98.3139, 98.5032, 98.5091, 97.2839, 98.3375, 98.0304, 98.3541
1778.78, 96.8637, 98.1763, 98.4182, 98.3119, 98.5091, 98.5032, 97.2979, 98.3337, 98.0147, 98.3508
1778.72, 96.8599, 98.1613, 98.4238, 98.3048, 98.5097, 98.4962, 97.3116, 98.3271, 97.9948, 98.3536
1778.66, 96.8538, 98.1485, 98.4286, 98.2934, 98.5051, 98.4899, 97.3238, 98.3187, 97.9723, 98.3603
1778.6, 96.8431, 98.1391, 98.4296, 98.2792, 98.4966, 98.4863, 97.3334, 98.3099, 97.9485, 98.3681
1778.54, 96.8268, 98.1345, 98.425, 98.2643, 98.4858, 98.4866, 97.3392, 98.3026, 97.925, 98.3745
1778.48, 96.8056, 98.1353, 98.4146, 98.2509, 98.4749, 98.4913, 97.3402, 98.2984, 97.903, 98.3783
1778.42, 96.7817, 98.1414, 98.3998, 98.241, 98.4658, 98.5004, 97.3348, 98.2981, 97.8837, 98.3801
1778.36, 96.7583, 98.1516, 98.3828, 98.2355, 98.4602, 98.5129, 97.3215, 98.3016, 97.8679, 98.3816
1778.3, 96.7376, 98.1634, 98.3664, 98.2348, 98.4593, 98.5274, 97.2991, 98.3081, 97.8564, 98.3853
1778.24, 96.7211, 98.1741, 98.3528, 98.238, 98.4637, 98.542, 97.2673, 98.316, 97.8499, 98.3933
1778.18, 96.7082, 98.1808, 98.3432, 98.2437, 98.4729, 98.5543, 97.2272, 98.3237, 97.8485, 98.4061
1778.12, 96.6976, 98.1815, 98.3378, 98.2499, 98.486, 98.5622, 97.1814, 98.3297, 97.8523, 98.4226
1778.06, 96.687, 98.1755, 98.3358, 98.2544, 98.5012, 98.5638, 97.134, 98.3332, 97.8603, 98.4401
1778, 96.6747, 98.1633, 98.3357, 98.2555, 98.5166, 98.5584, 97.0891, 98.3343, 97.8715, 98.4551
1777.94, 96.66, 98.1468, 98.3361, 98.2521, 98.5305, 98.5465, 97.0508, 98.3336, 97.884, 98.4646
1777.88, 96.6431, 98.1285, 98.3361, 98.244, 98.5417, 98.5298, 97.0218, 98.3325, 97.8958, 98.4668
1777.82, 96.6257, 98.1109, 98.335, 98.2323, 98.5496, 98.5107, 97.0025, 98.3322, 97.9046, 98.4615
1777.76, 96.6097, 98.0956, 98.3329, 98.2188, 98.5544, 98.4921, 96.9919, 98.3338, 97.9085, 98.4503
1777.7, 96.5969, 98.0838, 98.3302, 98.2058, 98.5571, 98.4763, 96.9872, 98.3379, 97.906, 98.4356
1777.64, 96.5883, 98.0752, 98.3274, 98.1958, 98.5588, 98.4647, 96.9852, 98.3445, 97.8963, 98.4202
1777.58, 96.5839, 98.0694, 98.3251, 98.1907, 98.5606, 98.4578, 96.9826, 98.3528, 97.8798, 98.4062
1777.52, 96.5827, 98.0654, 98.3239, 98.1916, 98.5632, 98.4552, 96.9771, 98.3618, 97.8576, 98.3948
1777.46, 96.5828, 98.0624, 98.3242, 98.1988, 98.5663, 98.456, 96.9674, 98.3704, 97.8321, 98.386
1777.4, 96.5816, 98.0598, 98.3263, 98.2113, 98.569, 98.4593, 96.9533, 98.3778, 97.806, 98.3789
1777.34, 96.5765, 98.0573, 98.3303, 98.2277, 98.5701, 98.4641, 96.9356, 98.3837, 97.7821, 98.3719
1777.28, 96.5653, 98.0546, 98.336, 98.2462, 98.568, 98.4696, 96.9156, 98.3882, 97.7626, 98.3635
1777.22, 96.5469, 98.0517, 98.343, 98.2648, 98.5617, 98.4752, 96.8948, 98.392, 97.7486, 98.3525
1777.16, 96.521, 98.0487, 98.3505, 98.2814, 98.5511, 98.4803, 96.8746, 98.396, 97.7396, 98.3384
1777.1, 96.4887, 98.0459, 98.3576, 98.2945, 98.5372, 98.4842, 96.8563, 98.4011, 97.7337, 98.3214
1777.04, 96.4523, 98.0433, 98.3632, 98.3026, 98.5221, 98.4865, 96.8409, 98.408, 97.7279, 98.3023
1776.98, 96.414, 98.0415, 98.3661, 98.3049, 98.5084, 98.4875, 96.8292, 98.417, 97.7195, 98.2825
1776.92, 96.3763, 98.0405, 98.3659, 98.3015, 98.4985, 98.4877, 96.8214, 98.4276, 97.7061, 98.2635
1776.86, 96.3408, 98.0404, 98.3623, 98.293, 98.4943, 98.4877, 96.8175, 98.4391, 97.687, 98.2467
1776.8, 96.308, 98.0409, 98.3559, 98.2806, 98.4961, 98.4883, 96.8166, 98.4503, 97.6632, 98.2335
1776.74, 96.2779, 98.0414, 98.3473, 98.2659, 98.5026, 98.4898, 96.8175, 98.4598, 97.6371, 98.2243
1776.68, 96.2498, 98.0413, 98.3373, 98.2503, 98.5113, 98.4917, 96.8186, 98.4665, 97.6118, 98.2193
1776.62, 96.223, 98.0401, 98.3267, 98.2349, 98.519, 98.4931, 96.8176, 98.4697, 97.5901, 98.2177
1776.55, 96.1973, 98.0375, 98.3158, 98.2205, 98.5229, 98.4927, 96.8127, 98.4688, 97.574, 98.2183
1776.49, 96.1726, 98.0336, 98.3048, 98.2074, 98.5209, 98.4896, 96.8021, 98.464, 97.5635, 98.2197
1776.43, 96.1491, 98.0286, 98.2937, 98.1961, 98.5126, 98.4836, 96.7846, 98.4557, 97.5574, 98.2204
1776.37, 96.1267, 98.0226, 98.2826, 98.1874, 98.4994, 98.4756, 96.76, 98.4447, 97.5531, 98.2192
1776.31, 96.1047, 98.0158, 98.2721, 98.1822, 98.4837, 98.4669, 96.7287, 98.4323, 97.5479, 98.2154
1776.25, 96.0823, 98.0079, 98.2627, 98.1818, 98.4685, 98.4593, 96.692, 98.4195, 97.5396, 98.2091
1776.19, 96.0583, 97.9987, 98.2555, 98.1869, 98.4569, 98.4542, 96.6515, 98.4077, 97.5272, 98.2008
1776.13, 96.0315, 97.9881, 98.2512, 98.1973, 98.4508, 98.4522, 96.6093, 98.3978, 97.5113, 98.1914
1776.07, 96.0017, 97.9767, 98.2505, 98.2114, 98.451, 98.453, 96.5672, 98.3908, 97.4934, 98.1821
1776.01, 95.9688, 97.9651, 98.253, 98.2267, 98.4571, 98.4555, 96.5266, 98.3869, 97.4756, 98.1736
1775.95, 95.9336, 97.9547, 98.2578, 98.2398, 98.4674, 98.4582, 96.4885, 98.3863, 97.4598, 98.1661
1775.89, 95.8967, 97.9461, 98.2635, 98.2479, 98.4797, 98.4598, 96.4533, 98.3885, 97.4472, 98.1591
1775.83, 95.8588, 97.94, 98.2682, 98.2489, 98.492, 98.4596, 96.421, 98.3929, 97.438, 98.1518
1775.77, 95.82, 97.9359, 98.2699, 98.2426, 98.5023, 98.4574, 96.391, 98.3984, 97.4312, 98.143
1775.71, 95.7802, 97.9328, 98.2676, 98.2301, 98.5094, 98.4535, 96.3621, 98.404, 97.4251, 98.1321
1775.65, 95.739, 97.9294, 98.2608, 98.2136, 98.5129, 98.4484, 96.3332, 98.4088, 97.4174, 98.1187
1775.59, 95.6961, 97.9248, 98.2503, 98.1957, 98.5129, 98.4427, 96.3029, 98.4118, 97.4061, 98.1033
1775.53, 95.6516, 97.9183, 98.2379, 98.1787, 98.51, 98.4366, 96.2697, 98.4124, 97.3894, 98.0869
1775.47, 95.6054, 97.9106, 98.2258, 98.1642, 98.5048, 98.4303, 96.2329, 98.4103, 97.3662, 98.0704
1775.41, 95.5577, 97.9029, 98.2165, 98.1527, 98.4978, 98.4235, 96.1919, 98.4056, 97.3364, 98.0545
1775.35, 95.5087, 97.8967, 98.212, 98.1445, 98.4893, 98.4163, 96.1471, 98.399, 97.3007, 98.0393
1775.29, 95.4579, 97.8933, 98.2128, 98.139, 98.4797, 98.4085, 96.0993, 98.3917, 97.2606, 98.0239
1775.23, 95.4052, 97.8933, 98.218, 98.136, 98.4693, 98.4005, 96.0499, 98.3854, 97.2182, 98.0075
1775.17, 95.3505, 97.8962, 98.2251, 98.1347, 98.4586, 98.3924, 96.0003, 98.3818, 97.176, 97.9889
1775.11, 95.2938, 97.9006, 98.2307, 98.1343, 98.4483, 98.3849, 95.9516, 98.382, 97.1361, 97.9675
1775.05, 95.2359, 97.9045, 98.2313, 98.1337, 98.4397, 98.3783, 95.9049, 98.3867, 97.1, 97.9436
1774.99, 95.1776, 97.9054, 98.2245, 98.1317, 98.4337, 98.3732, 95.8603, 98.3955, 97.068, 97.9178
1774.93, 95.1196, 97.9012, 98.2097, 98.1273, 98.4309, 98.37, 95.8179, 98.407, 97.0393, 97.8911
1774.87, 95.0624, 97.8902, 98.1885, 98.1198, 98.4314, 98.3693, 95.7771, 98.4192, 97.0125, 97.8642
1774.81, 95.006, 97.8714, 98.1643, 98.1093, 98.4344, 98.3718, 95.7373, 98.4302, 96.9859, 97.8373
1774.75, 94.9498, 97.8446, 98.141, 98.0965, 98.4383, 98.378, 95.6975, 98.4385, 96.9583, 97.81
1774.69, 94.8933, 97.8108, 98.1224, 98.0825, 98.441, 98.3884, 95.6562, 98.4438, 96.9294, 97.7816
1774.63, 94.8357, 97.7715, 98.1103, 98.0686, 98.4409, 98.403, 95.6121, 98.4464, 96.8997, 97.7517
1774.57, 94.7768, 97.7289, 98.1045, 98.0554, 98.4363, 98.4213, 95.5634, 98.4477, 96.8705, 97.7203
1774.51, 94.7168, 97.6856, 98.1024, 98.0434, 98.427, 98.4418, 95.509, 98.449, 96.843, 97.6878
1774.45, 94.6558, 97.6442, 98.1006, 98.0326, 98.4135, 98.4624, 95.4483, 98.4516, 96.818, 97.6555
1774.39, 94.5942, 97.6066, 98.0956, 98.0226, 98.3974, 98.4806, 95.382, 98.4559, 96.7955, 97.6242
1774.32, 94.5319, 97.5745, 98.0851, 98.0139, 98.3811, 98.4936, 95.3118, 98.4613, 96.7746, 97.5946
1774.26, 94.4685, 97.5486, 98.0693, 98.0067, 98.367, 98.4996, 95.2403, 98.4669, 96.7538, 97.5666
1774.2, 94.4032, 97.529, 98.0499, 98.0018, 98.3579, 98.4979, 95.1704, 98.4712, 96.7317, 97.5396
1774.14, 94.3353, 97.5152, 98.0302, 97.9998, 98.3558, 98.4894, 95.1043, 98.4728, 96.7071, 97.5128
1774.08, 94.2638, 97.5067, 98.0135, 98.0005, 98.3621, 98.4761, 95.0432, 98.4709, 96.6794, 97.4857
1774.02, 94.1882, 97.5022, 98.0021, 98.0033, 98.3769, 98.4612, 94.9868, 98.4647, 96.6488, 97.4584
1773.96, 94.1083, 97.5005, 97.9968, 98.007, 98.3996, 98.4477, 94.9338, 98.4543, 96.6155, 97.4319
1773.9, 94.0239, 97.4994, 97.997, 98.0103, 98.4283, 98.4381, 94.8822, 98.44, 96.58, 97.4072
1773.84, 93.9356, 97.4968, 98.0008, 98.0119, 98.4604, 98.4337, 94.8301, 98.4223, 96.5424, 97.3853
1773.78, 93.8438, 97.4899, 98.0061, 98.0114, 98.4925, 98.4344, 94.7766, 98.4025, 96.5032, 97.3666
1773.72, 93.7495, 97.4763, 98.0113, 98.009, 98.5215, 98.4392, 94.7215, 98.382, 96.4624, 97.3506
1773.66, 93.6538, 97.4545, 98.0156, 98.0052, 98.5442, 98.4465, 94.6652, 98.3627, 96.4206, 97.3359
1773.6, 93.5581, 97.4244, 98.0187, 98.0002, 98.5586, 98.455, 94.6082, 98.3466, 96.3783, 97.321
1773.54, 93.464, 97.3875, 98.0206, 97.994, 98.5636, 98.4638, 94.5504, 98.3353, 96.3357, 97.3048
1773.48, 93.3729, 97.3469, 98.0212, 97.986, 98.559, 98.4725, 94.4912, 98.3295, 96.293, 97.2867
1773.42, 93.2865, 97.3066, 98.0197, 97.9752, 98.5459, 98.4813, 94.4291, 98.329, 96.2495, 97.2669
1773.36, 93.2058, 97.2705, 98.0146, 97.9609, 98.5263, 98.4902, 94.3625, 98.3323, 96.2044, 97.2462
1773.3, 93.1315, 97.2419, 98.0047, 97.9428, 98.5029, 98.499, 94.2903, 98.337, 96.1563, 97.2251
1773.24, 93.0634, 97.2226, 97.9887, 97.9216, 98.4782, 98.507, 94.2122, 98.3408, 96.1045, 97.204
1773.18, 93.0002, 97.2124, 97.9664, 97.8986, 98.4551, 98.5132, 94.1289, 98.3416, 96.0486, 97.1825
1773.12, 92.9396, 97.21, 97.9383, 97.8757, 98.4357, 98.5165, 94.0418, 98.3388, 95.9894, 97.1592
1773.06, 92.8784, 97.2128, 97.906, 97.8547, 98.4213, 98.5162, 93.9526, 98.3333, 95.9284, 97.1328
1773, 92.8121, 97.2179, 97.8715, 97.8369, 98.4123, 98.5115, 93.8627, 98.327, 95.8677, 97.1018
1772.94, 92.7365, 97.2225, 97.837, 97.8232, 98.4085, 98.5024, 93.7726, 98.3223, 95.8091, 97.0654
1772.88, 92.6479, 97.2242, 97.8041, 97.8139, 98.4086, 98.4889, 93.6825, 98.3215, 95.754, 97.0233
1772.82, 92.5442, 97.2215, 97.7744, 97.8087, 98.4112, 98.4712, 93.5915, 98.3259, 95.7029, 96.9765
1772.76, 92.4256, 97.2134, 97.7485, 97.8069, 98.4148, 98.4497, 93.499, 98.3352, 95.6554, 96.9262
1772.7, 92.2954, 97.1996, 97.7265, 97.8075, 98.4181, 98.4253, 93.4045, 98.3478, 95.6106, 96.8744
1772.64, 92.1583, 97.1806, 97.7085, 97.8092, 98.4203, 98.3993, 93.3082, 98.3613, 95.5672, 96.8234
1772.58, 92.0204, 97.1571, 97.694, 97.8106, 98.4208, 98.3734, 93.2111, 98.3729, 95.5238, 96.7751
1772.52, 91.8867, 97.1303, 97.6827, 97.8105, 98.4191, 98.3495, 93.1144, 98.3806, 95.4795, 96.7313
1772.46, 91.7604, 97.1013, 97.674, 97.8078, 98.4146, 98.3297, 93.0199, 98.3833, 95.4334, 96.6931
1772.4, 91.6428, 97.0711, 97.6673, 97.8025, 98.4065, 98.3155, 92.9286, 98.3811, 95.3849, 96.6607
1772.34, 91.5327, 97.0403, 97.6617, 97.7947, 98.3942, 98.3076, 92.8411, 98.3752, 95.3334, 96.6332
1772.28, 91.428, 97.0093, 97.6564, 97.7857, 98.3773, 98.3064, 92.7573, 98.3672, 95.2787, 96.6092
1772.22, 91.3263, 96.9783, 97.6505, 97.7765, 98.3564, 98.3112, 92.6762, 98.359, 95.2208, 96.5863
1772.16, 91.2253, 96.9473, 97.6432, 97.7682, 98.3327, 98.3206, 92.5962, 98.3523, 95.1603, 96.5626
1772.1, 91.1236, 96.9165, 97.6339, 97.7612, 98.3086, 98.3329, 92.5157, 98.3481, 95.098, 96.5365
1772.03, 91.0209, 96.8863, 97.6225, 97.7552, 98.2867, 98.3464, 92.4332, 98.3472, 95.035, 96.5074
1771.97, 90.9171, 96.8569, 97.6091, 97.749, 98.2692, 98.3589, 92.3477, 98.3492, 94.9723, 96.4759
1771.91, 90.8128, 96.8288, 97.5941, 97.7414, 98.2578, 98.3686, 92.2593, 98.3535, 94.9111, 96.4429
1771.85, 90.7083, 96.8022, 97.578, 97.7312, 98.2526, 98.3742, 92.1684, 98.359, 94.8517, 96.41
1771.79, 90.6039, 96.7774, 97.5613, 97.7179, 98.2531, 98.3746, 92.076, 98.3648, 94.7946, 96.3777
1771.73, 90.5, 96.7541, 97.5444, 97.7017, 98.2573, 98.3696, 91.9828, 98.3698, 94.7396, 96.3462
1771.67, 90.3963, 96.7323, 97.5276, 97.6836, 98.2633, 98.36, 91.8889, 98.3739, 94.6868, 96.3144
1771.61, 90.2924, 96.7117, 97.5111, 97.6645, 98.2695, 98.3473, 91.7939, 98.3772, 94.6359, 96.2813
1771.55, 90.1876, 96.6923, 97.4951, 97.6458, 98.2745, 98.3334, 91.6969, 98.3802, 94.5866, 96.2463
1771.49, 90.0807, 96.6739, 97.4799, 97.6284, 98.2778, 98.3205, 91.597, 98.3836, 94.5385, 96.2097
1771.43, 89.97, 96.6564, 97.4656, 97.6125, 98.2795, 98.3105, 91.4942, 98.3874, 94.4905, 96.173
1771.37, 89.8545, 96.6394, 97.4526, 97.5985, 98.2798, 98.3045, 91.3896, 98.3912, 94.4415, 96.1381
1771.31, 89.7336, 96.6224, 97.4407, 97.5862, 98.279, 98.3031, 91.2855, 98.3935, 94.3903, 96.107
1771.25, 89.6079, 96.6048, 97.4298, 97.5757, 98.2772, 98.306, 91.1849, 98.3923, 94.3359, 96.0805
1771.19, 89.4794, 96.5862, 97.4195, 97.5667, 98.2747, 98.3125, 91.0911, 98.3856, 94.2783, 96.058
1771.13, 89.3513, 96.5665, 97.4092, 97.5592, 98.2716, 98.322, 91.0067, 98.372, 94.2183, 96.0377
1771.07, 89.2274, 96.546, 97.3986, 97.5528, 98.2679, 98.3336, 90.9329, 98.3514, 94.1579, 96.017
1771.01, 89.1112, 96.5255, 97.3875, 97.5471, 98.2641, 98.3465, 90.8698, 98.3252, 94.0994, 95.9938
1770.95, 89.0053, 96.5061, 97.3762, 97.5419, 98.2607, 98.3599, 90.816, 98.296, 94.0453, 95.9674
1770.89, 88.9106, 96.4886, 97.3654, 97.5367, 98.2583, 98.3726, 90.7693, 98.2671, 93.9975, 95.9385
1770.83, 88.827, 96.4735, 97.3559, 97.5312, 98.2572, 98.3835, 90.7271, 98.2417, 93.9568, 95.9088
1770.77, 88.7527, 96.4607, 97.3486, 97.5251, 98.258, 98.3914, 90.6864, 98.2225, 93.9226, 95.8807
1770.71, 88.6855, 96.4496, 97.3438, 97.5182, 98.2606, 98.3958, 90.6447, 98.2108, 93.8934, 95.8558
1770.65, 88.6227, 96.4393, 97.3416, 97.51, 98.2648, 98.3966, 90.5993, 98.2068, 93.8671, 95.8344
1770.59, 88.562, 96.429, 97.3411, 97.4999, 98.2702, 98.3946, 90.5484, 98.2098, 93.8415, 95.8154
1770.53, 88.5019, 96.4181, 97.3413, 97.4872, 98.2762, 98.3908, 90.4908, 98.2185, 93.8149, 95.797
1770.47, 88.4412, 96.4066, 97.3411, 97.4716, 98.2819, 98.3868, 90.4268, 98.2319, 93.7864, 95.7771
1770.41, 88.3798, 96.3945, 97.3394, 97.4532, 98.2866, 98.3832, 90.3576, 98.2489, 93.7564, 95.7545
1770.35, 88.3177, 96.3823, 97.3355, 97.4331, 98.2897, 98.3807, 90.286, 98.2689, 93.726, 95.7293
1770.29, 88.2556, 96.3702, 97.3293, 97.4131, 98.2909, 98.3788, 90.2156, 98.291, 93.6965, 95.7027
1770.23, 88.1942, 96.3585, 97.3209, 97.3956, 98.2905, 98.3773, 90.1498, 98.3141, 93.6698, 95.6768
1770.17, 88.1342, 96.347, 97.311, 97.3833, 98.2889, 98.3756, 90.0918, 98.3366, 93.6469, 95.6539
1770.11, 88.0764, 96.3358, 97.2999, 97.3783, 98.2869, 98.3734, 90.0433, 98.3564, 93.6284, 95.6357
1770.05, 88.021, 96.3251, 97.2885, 97.3817, 98.2857, 98.3708, 90.0049, 98.3714, 93.614, 95.6228
1769.99, 87.9682, 96.3154, 97.277, 97.3936, 98.2863, 98.368, 89.9759, 98.3798, 93.6027, 95.6153
1769.93, 87.9182, 96.3071, 97.266, 97.4124, 98.2897, 98.3651, 89.9546, 98.3809, 93.593, 95.6121
1769.87, 87.8712, 96.301, 97.2558, 97.4354, 98.2967, 98.3622, 89.9393, 98.3749, 93.5835, 95.6119
1769.8, 87.8277, 96.2976, 97.2469, 97.4595, 98.3075, 98.3589, 89.9283, 98.3632, 93.5729, 95.6136
1769.74, 87.7886, 96.2968, 97.2397, 97.481, 98.3221, 98.3549, 89.9202, 98.3477, 93.5608, 95.6156
1769.68, 87.7548, 96.2981, 97.2343, 97.4972, 98.3398, 98.3501, 89.9138, 98.3304, 93.5473, 95.6173
1769.62, 87.7273, 96.3008, 97.2313, 97.5063, 98.3592, 98.3446, 89.9078, 98.313, 93.5337, 95.6181
1769.56, 87.7069, 96.3038, 97.2306, 97.5081, 98.3782, 98.3394, 89.9012, 98.2967, 93.5215, 95.6182
1769.5, 87.6936, 96.3063, 97.2324, 97.5038, 98.3946, 98.3354, 89.8931, 98.2821, 93.5126, 95.6181
1769.44, 87.6867, 96.308, 97.2363, 97.4961, 98.4062, 98.3338, 89.8833, 98.2693, 93.5085, 95.6192
1769.38, 87.685, 96.3089, 97.2418, 97.4881, 98.4114, 98.3355, 89.8723, 98.2584, 93.5101, 95.6228
1769.32, 87.687, 96.3097, 97.2481, 97.4829, 98.4096, 98.3407, 89.8615, 98.2498, 93.5175, 95.6302
1769.26, 87.6913, 96.3109, 97.2537, 97.4825, 98.4016, 98.3491, 89.853, 98.244, 93.5301, 95.6425
1769.2, 87.697, 96.3133, 97.2572, 97.4876, 98.389, 98.36, 89.8492, 98.2413, 93.5463, 95.6597
1769.14, 87.7038, 96.3171, 97.2574, 97.4976, 98.3744, 98.3722, 89.8521, 98.2421, 93.5648, 95.6812
1769.08, 87.712, 96.3221, 97.2535, 97.5105, 98.3603, 98.3849, 89.8624, 98.2462, 93.584, 95.7058
1769.02, 87.7219, 96.3278, 97.2455, 97.5241, 98.3488, 98.3971, 89.8798, 98.2529, 93.603, 95.7318
1768.96, 87.7338, 96.3335, 97.2347, 97.5366, 98.3412, 98.4085, 89.9027, 98.2613, 93.6217, 95.7576
1768.9, 87.748, 96.3387, 97.2232, 97.5467, 98.338, 98.4191, 89.9286, 98.2703, 93.6404, 95.782
1768.84, 87.7643, 96.3432, 97.2139, 97.5541, 98.3385, 98.4291, 89.9549, 98.2793, 93.66, 95.8043
1768.78, 87.7825, 96.3476, 97.2096, 97.5594, 98.342, 98.4389, 89.98, 98.2881, 93.6815, 95.8241
1768.72, 87.8027, 96.3528, 97.2124, 97.5632, 98.3473, 98.4489, 90.0028, 98.2972, 93.7059, 95.8417
1768.66, 87.8254, 96.3599, 97.2232, 97.5661, 98.3533, 98.4591, 90.0237, 98.3076, 93.7339, 95.8581
1768.6, 87.8514, 96.3698, 97.2416, 97.5681, 98.3589, 98.4693, 90.0443, 98.3204, 93.7657, 95.8746
1768.54, 87.8817, 96.3831, 97.2656, 97.5691, 98.3635, 98.4788, 90.0664, 98.336, 93.8008, 95.8928
1768.48, 87.9172, 96.4001, 97.2928, 97.5688, 98.3666, 98.4867, 90.0924, 98.3543, 93.8386, 95.9145
1768.42, 87.9584, 96.4207, 97.3204, 97.5674, 98.3679, 98.492, 90.1241, 98.3743, 93.8778, 95.9416
1768.36, 88.005, 96.4447, 97.3464, 97.5656, 98.3675, 98.4939, 90.1628, 98.3941, 93.917, 95.9748
1768.3, 88.0562, 96.4717, 97.3696, 97.5648, 98.3659, 98.4926, 90.2088, 98.412, 93.9549, 96.0142
1768.24, 88.1111, 96.5017, 97.3896, 97.5665, 98.3636, 98.4887, 90.2618, 98.4265, 93.9904, 96.0585
1768.18, 88.1687, 96.5342, 97.4069, 97.5721, 98.3614, 98.4839, 90.3204, 98.4367, 94.0231, 96.1055
1768.12, 88.2288, 96.5687, 97.4221, 97.5823, 98.3597, 98.4795, 90.3828, 98.443, 94.0531, 96.1525
1768.06, 88.2921, 96.6039, 97.4356, 97.597, 98.3586, 98.4771, 90.447, 98.4463, 94.0817, 96.1974
1768, 88.3595, 96.6382, 97.4472, 97.6153, 98.3578, 98.4767, 90.5113, 98.4476, 94.1105, 96.2389
1767.94, 88.4326, 96.6691, 97.4562, 97.6355, 98.3571, 98.4777, 90.5745, 98.4475, 94.1415, 96.277
1767.88, 88.5123, 96.6947, 97.4617, 97.656, 98.3561, 98.4783, 90.6361, 98.4457, 94.1763, 96.3127
1767.82, 88.599, 96.7132, 97.4632, 97.6752, 98.3551, 98.4763, 90.6967, 98.4412, 94.2162, 96.3474
1767.76, 88.6918, 96.7241, 97.4608, 97.6916, 98.3546, 98.4699, 90.7574, 98.4329, 94.261, 96.382
1767.7, 88.7889, 96.728, 97.4556, 97.7045, 98.3555, 98.4583, 90.8194, 98.4201, 94.3097, 96.4172
1767.64, 88.8877, 96.7266, 97.4495, 97.7136, 98.3582, 98.4422, 90.884, 98.4033, 94.3606, 96.4525
1767.58, 88.9853, 96.7223, 97.4449, 97.7193, 98.3628, 98.4234, 90.9518, 98.3844, 94.4113, 96.4876
1767.51, 89.0791, 96.7181, 97.4442, 97.7224, 98.3688, 98.4047, 91.0227, 98.3664, 94.46, 96.5223
1767.45, 89.167, 96.7163, 97.4488, 97.7244, 98.3747, 98.3887, 91.096, 98.3526, 94.5057, 96.5565
1767.39, 89.2479, 96.7193, 97.4591, 97.7269, 98.3793, 98.3776, 91.1704, 98.3454, 94.5484, 96.5913
1767.33, 89.3217, 96.7284, 97.4742, 97.7312, 98.3812, 98.3724, 91.2448, 98.3458, 94.5895, 96.6277
1767.27, 89.389, 96.7446, 97.4925, 97.738, 98.3801, 98.3725, 91.3182, 98.3526, 94.6315, 96.6666
1767.21, 89.4515, 96.7683, 97.512, 97.747, 98.3763, 98.3768, 91.3902, 98.3632, 94.6768, 96.7086
1767.15, 89.511, 96.7995, 97.5312, 97.757, 98.3708, 98.3834, 91.4606, 98.3742, 94.7273, 96.7532
1767.09, 89.5699, 96.8372, 97.5493, 97.7658, 98.3649, 98.3906, 91.5297, 98.3827, 94.784, 96.7992
1767.03, 89.6307, 96.88, 97.5666, 97.7714, 98.3597, 98.3973, 91.5978, 98.3875, 94.8463, 96.8456
1766.97, 89.6957, 96.9254, 97.5842, 97.7721, 98.3559, 98.4034, 91.6649, 98.3885, 94.9123, 96.8913
1766.91, 89.7665, 96.9704, 97.6032, 97.7676, 98.3541, 98.4094, 91.7313, 98.3876, 94.979, 96.9356
1766.85, 89.8444, 97.0121, 97.6246, 97.7589, 98.3543, 98.416, 91.7971, 98.3869, 95.0434, 96.9787
1766.79, 89.9299, 97.0478, 97.6484, 97.7481, 98.3568, 98.424, 91.8627, 98.3884, 95.1027, 97.0207
1766.73, 90.0225, 97.0756, 97.674, 97.7378, 98.3622, 98.4336, 91.9292, 98.3929, 95.1551, 97.0616
1766.67, 90.1211, 97.0949, 97.7001, 97.7306, 98.3704, 98.4445, 91.9975, 98.4001, 95.2003, 97.1013
1766.61, 90.2239, 97.1061, 97.7252, 97.7285, 98.3814, 98.4554, 92.0689, 98.4086, 95.2391, 97.1394
1766.55, 90.3288, 97.1107, 97.7481, 97.7325, 98.3941, 98.4649, 92.1441, 98.4166, 95.2734, 97.1754
1766.49, 90.4337, 97.1104, 97.7683, 97.7424, 98.4065, 98.472, 92.2231, 98.4226, 95.3056, 97.2093
1766.43, 90.5365, 97.1073, 97.7857, 97.7576, 98.4163, 98.4759, 92.3052, 98.4257, 95.3381, 97.2413
1766.37, 90.6359, 97.1037, 97.8006, 97.777, 98.4213, 98.4769, 92.3892, 98.4257, 95.373, 97.2724
1766.31, 90.7312, 97.1016, 97.8135, 97.7995, 98.4203, 98.4762, 92.4734, 98.4232, 95.4113, 97.3036
1766.25, 90.8225, 97.1032, 97.8248, 97.8239, 98.4135, 98.4751, 92.5568, 98.4192, 95.4536, 97.3361
1766.19, 90.9107, 97.1104, 97.835, 97.849, 98.4029, 98.4748, 92.6388, 98.4149, 95.4995, 97.3708
1766.13, 90.9977, 97.1245, 97.8447, 97.8738, 98.3914, 98.4759, 92.7197, 98.4114, 95.5485, 97.4082
1766.07, 91.0853, 97.146, 97.8546, 97.8973, 98.3824, 98.4782, 92.8005, 98.4101, 95.5998, 97.4485
1766.01, 91.1755, 97.1742, 97.8659, 97.9184, 98.3787, 98.4807, 92.8821, 98.4119, 95.653, 97.4917
1765.95, 91.2696, 97.2071, 97.8796, 97.9368, 98.3814, 98.482, 92.9654, 98.4176, 95.7079, 97.5376
1765.89, 91.3678, 97.2419, 97.8966, 97.9521, 98.3904, 98.4813, 93.0507, 98.4272, 95.7645, 97.5855
1765.83, 91.4693, 97.2753, 97.9171, 97.9648, 98.4042, 98.4782, 93.1378, 98.4396, 95.8223, 97.6345
1765.77, 91.5721, 97.3047, 97.9402, 97.9755, 98.4208, 98.4734, 93.2256, 98.4532, 95.8805, 97.6827
1765.71, 91.6738, 97.3284, 97.9643, 97.9848, 98.4384, 98.4677, 93.3131, 98.4655, 95.9375, 97.7281
1765.65, 91.7717, 97.3464, 97.9872, 97.9934, 98.4558, 98.4623, 93.3991, 98.4744, 95.9912, 97.7683
1765.59, 91.8636, 97.3601, 98.007, 98.0019, 98.4726, 98.4578, 93.4826, 98.4782, 96.0394, 97.8015
1765.53, 91.9485, 97.3717, 98.0224, 98.0103, 98.4887, 98.4547, 93.563, 98.4767, 96.0803, 97.8269
1765.47, 92.0263, 97.3836, 98.0333, 98.0188, 98.5039, 98.4526, 93.6401, 98.4708, 96.1133, 97.8451
1765.41, 92.0982, 97.398, 98.0406, 98.0274, 98.5177, 98.4515, 93.7136, 98.4622, 96.1388, 97.8577
1765.35, 92.1662, 97.416, 98.0461, 98.0361, 98.5289, 98.4515, 93.7837, 98.4531, 96.1588, 97.8672
1765.28, 92.2328, 97.4378, 98.0512, 98.0451, 98.5363, 98.4535, 93.8507, 98.4451, 96.176, 97.8762
1765.22, 92.3005, 97.4626, 98.0572, 98.0544, 98.5387, 98.4586, 93.915, 98.4392, 96.193, 97.8866
1765.16, 92.3713, 97.4892, 98.0644, 98.0642, 98.5358, 98.4677, 93.9771, 98.4358, 96.212, 97.8995
1765.1, 92.4465, 97.5161, 98.0721, 98.0743, 98.5282, 98.4812, 94.0373, 98.4345, 96.2342, 97.9153
1765.04, 92.5265, 97.5424, 98.0794, 98.0848, 98.5176, 98.4982, 94.0962, 98.4348, 96.2597, 97.9336
1764.98, 92.6108, 97.5669, 98.0852, 98.0952, 98.5059, 98.5168, 94.1539, 98.4363, 96.288, 97.9543
1764.92, 92.6984, 97.5894, 98.0891, 98.1053, 98.4953, 98.5342, 94.2103, 98.4388, 96.3183, 97.9773
1764.86, 92.7875, 97.6095, 98.0911, 98.1146, 98.4874, 98.5477, 94.2654, 98.4419, 96.3504, 98.0027
1764.8, 92.8768, 97.6273, 98.0919, 98.1227, 98.4832, 98.5555, 94.3188, 98.4451, 96.3845, 98.0305
1764.74, 92.965, 97.6427, 98.0927, 98.1291, 98.4829, 98.5568, 94.3703, 98.4475, 96.4214, 98.0605
1764.68, 93.0516, 97.6558, 98.0941, 98.1333, 98.4864, 98.5521, 94.4197, 98.4479, 96.4618, 98.092
1764.62, 93.1368, 97.6664, 98.097, 98.1354, 98.4931, 98.543, 94.4672, 98.4457, 96.5058, 98.1237
1764.56, 93.2215, 97.6745, 98.1014, 98.1355, 98.5024, 98.5314, 94.513, 98.4404, 96.5529, 98.1547
1764.5, 93.3066, 97.6802, 98.1071, 98.1346, 98.5135, 98.5192, 94.5575, 98.4329, 96.6015, 98.184
1764.44, 93.3927, 97.6842, 98.1137, 98.1337, 98.5256, 98.5078, 94.6016, 98.4245, 96.6494, 98.2114
1764.38, 93.48, 97.6875, 98.121, 98.1341, 98.5375, 98.498, 94.6466, 98.417, 96.6942, 98.2372
1764.32, 93.5675, 97.6919, 98.1288, 98.1367, 98.5481, 98.4904, 94.694, 98.4119, 96.7341, 98.2619
1764.26, 93.654, 97.6991, 98.1373, 98.1419, 98.5561, 98.4853, 94.7456, 98.41, 96.768, 98.2861
1764.2, 93.7378, 97.7108, 98.1469, 98.1494, 98.5609, 98.4827, 94.8032, 98.4112, 96.7963, 98.3099
1764.14, 93.8178, 97.7278, 98.1578, 98.158, 98.5624, 98.4829, 94.8678, 98.4146, 96.8202, 98.3329
1764.08, 93.8934, 97.7499, 98.1704, 98.1662, 98.5612, 98.486, 94.9398, 98.4193, 96.8416, 98.3548
1764.02, 93.9651, 97.7755, 98.1845, 98.1728, 98.5586, 98.4919, 95.0185, 98.4245, 96.8627, 98.3751
1763.96, 94.0337, 97.8027, 98.1996, 98.1768, 98.5563, 98.5001, 95.1019, 98.4295, 96.886, 98.3934
1763.9, 94.1002, 97.8291, 98.2148, 98.1782, 98.5553, 98.5101, 95.1874, 98.4346, 96.913, 98.4102
1763.84, 94.1654, 97.8528, 98.229, 98.1773, 98.5561, 98.5214, 95.2717, 98.4397, 96.9451, 98.4258
1763.78, 94.2295, 97.8732, 98.2408, 98.1752, 98.5584, 98.5332, 95.3517, 98.4449, 96.9824, 98.4409
1763.72, 94.2918, 97.8906, 98.249, 98.1732, 98.5609, 98.5447, 95.4245, 98.4496, 97.0245, 98.4555
1763.66, 94.3522, 97.9061, 98.253, 98.1723, 98.5624, 98.555, 95.4881, 98.4533, 97.0703, 98.4696
1763.6, 94.4106, 97.9213, 98.2527, 98.1734, 98.5616, 98.5634, 95.5412, 98.4554, 97.1181, 98.4828
1763.54, 94.4679, 97.937, 98.2487, 98.1772, 98.5582, 98.5691, 95.5834, 98.4557, 97.1662, 98.4948
1763.48, 94.5258, 97.9534, 98.2426, 98.184, 98.5528, 98.5717, 95.6155, 98.4544, 97.2128, 98.5059
1763.42, 94.5864, 97.97, 98.2362, 98.1937, 98.5467, 98.5712, 95.6391, 98.4526, 97.2569, 98.5168
1763.36, 94.6517, 97.9856, 98.2317, 98.2062, 98.5416, 98.5683, 95.6568, 98.4514, 97.2979, 98.5291
1763.3, 94.7225, 97.999, 98.2308, 98.2208, 98.5387, 98.5642, 95.6718, 98.4517, 97.3357, 98.5441
1763.24, 94.7979, 98.0096, 98.2347, 98.2363, 98.5388, 98.5603, 95.6878, 98.4541, 97.3705, 98.563
1763.18, 94.8759, 98.0172, 98.2436, 98.2512, 98.5418, 98.5579, 95.708, 98.4585, 97.4029, 98.5861
1763.12, 94.9535, 98.0224, 98.2566, 98.2641, 98.5471, 98.5577, 95.7349, 98.4645, 97.433, 98.6126
1763.05, 95.0276, 98.0256, 98.272, 98.2734, 98.5539, 98.5599, 95.7696, 98.4715, 97.461, 98.6406
1762.99, 95.0959, 98.0275, 98.2879, 98.2788, 98.5614, 98.5639, 95.8117, 98.4789, 97.4868, 98.6678
1762.93, 95.1577, 98.0281, 98.3024, 98.2805, 98.5694, 98.5688, 95.8597, 98.4865, 97.5103, 98.6914
1762.87, 95.2136, 98.0275, 98.3144, 98.2796, 98.5782, 98.5739, 95.9113, 98.494, 97.5316, 98.7094
1762.81, 95.2649, 98.0257, 98.3235, 98.2778, 98.5881, 98.5789, 95.9639, 98.5011, 97.5511, 98.7205
1762.75, 95.3136, 98.0229, 98.3309, 98.2766, 98.5996, 98.5838, 96.0158, 98.5075, 97.569, 98.7244
1762.69, 95.361, 98.0199, 98.3382, 98.2775, 98.6126, 98.589, 96.0657, 98.5125, 97.586, 98.7216
1762.63, 95.4077, 98.0177, 98.3475, 98.2809, 98.6268, 98.5947, 96.1135, 98.5156, 97.6023, 98.7137
1762.57, 95.4537, 98.0172, 98.3603, 98.2865, 98.6415, 98.6009, 96.1596, 98.5169, 97.618, 98.7025
1762.51, 95.4982, 98.0192, 98.3773, 98.2934, 98.656, 98.6068, 96.2045, 98.5166, 97.6331, 98.6899
1762.45, 95.5405, 98.0237, 98.3975, 98.3005, 98.6696, 98.6114, 96.2488, 98.5157, 97.6476, 98.6779
1762.39, 95.5803, 98.0303, 98.4188, 98.307, 98.6817, 98.6132, 96.2924, 98.5153, 97.6613, 98.6678
1762.33, 95.6175, 98.0378, 98.4382, 98.3123, 98.6922, 98.6112, 96.3351, 98.5165, 97.6744, 98.6607
1762.27, 95.6525, 98.0448, 98.4529, 98.3165, 98.7011, 98.6048, 96.3763, 98.5199, 97.6873, 98.6572
1762.21, 95.6857, 98.05, 98.4607, 98.3197, 98.7086, 98.5942, 96.4156, 98.5255, 97.7003, 98.6577
1762.15, 95.7177, 98.0527, 98.4612, 98.3225, 98.715, 98.5804, 96.4526, 98.5325, 97.7139, 98.6622
1762.09, 95.7492, 98.0523, 98.4556, 98.3255, 98.7204, 98.5648, 96.4875, 98.54, 97.7282, 98.6709
1762.03, 95.7807, 98.049, 98.4463, 98.3288, 98.7249, 98.549, 96.5205, 98.5466, 97.7435, 98.6834
1761.97, 95.8129, 98.0437, 98.4365, 98.3325, 98.7285, 98.5346, 96.5521, 98.5513, 97.7596, 98.6994
1761.91, 95.8467, 98.0372, 98.4293, 98.3363, 98.7313, 98.5226, 96.5825, 98.5534, 97.7767, 98.7183
1761.85, 95.8832, 98.031, 98.4268, 98.3401, 98.7328, 98.5136, 96.6118, 98.5525, 97.7945, 98.7392
1761.79, 95.923, 98.0261, 98.4296, 98.3436, 98.733, 98.5075, 96.6398, 98.5487, 97.8127, 98.7609
1761.73, 95.9665, 98.0234, 98.4375, 98.3469, 98.7311, 98.5037, 96.6662, 98.5422, 97.831, 98.7824
1761.67, 96.0131, 98.0232, 98.4491, 98.3505, 98.7267, 98.5011, 96.6904, 98.534, 97.8485, 98.8025
1761.61, 96.0616, 98.0254, 98.4626, 98.355, 98.7191, 98.4988, 96.7121, 98.5251, 97.8644, 98.8206
1761.55, 96.1105, 98.0294, 98.4766, 98.3615, 98.708, 98.4958, 96.7311, 98.5166, 97.8775, 98.8361
1761.49, 96.1576, 98.0345, 98.4898, 98.3707, 98.6932, 98.4918, 96.7476, 98.5097, 97.8872, 98.849
1761.43, 96.2012, 98.0404, 98.5012, 98.3831, 98.6749, 98.4874, 96.7618, 98.5053, 97.893, 98.8591
1761.37, 96.2402, 98.047, 98.5098, 98.3984, 98.6541, 98.4833, 96.7741, 98.5037, 97.8956, 98.8663
1761.31, 96.2739, 98.0545, 98.515, 98.4158, 98.6317, 98.4813, 96.785, 98.5046, 97.8959, 98.8705
1761.25, 96.3023, 98.0634, 98.5165, 98.4333, 98.6093, 98.4826, 96.7948, 98.5068, 97.8959, 98.8716
1761.19, 96.3263, 98.0737, 98.514, 98.4491, 98.5886, 98.4886, 96.8039, 98.5093, 97.8976, 98.8696
1761.13, 96.3469, 98.0854, 98.5083, 98.4611, 98.5711, 98.4998, 96.8127, 98.5104, 97.9034, 98.8649
1761.07, 96.3654, 98.0975, 98.5005, 98.4681, 98.5581, 98.516, 96.8218, 98.5094, 97.915, 98.8583
1761.01, 96.3833, 98.1092, 98.4925, 98.4697, 98.5504, 98.5363, 96.832, 98.5059, 97.9336, 98.8514
1760.95, 96.4021, 98.1197, 98.4857, 98.4661, 98.548, 98.5591, 96.8443, 98.5003, 97.9597, 98.8455
1760.89, 96.423, 98.1289, 98.4816, 98.4585, 98.5501, 98.5827, 96.8595, 98.4939, 97.9928, 98.8425
1760.83, 96.4473, 98.1378, 98.4803, 98.4482, 98.5555, 98.6052, 96.8784, 98.4882, 98.0316, 98.8433
1760.76, 96.4757, 98.148, 98.4812, 98.4362, 98.5628, 98.625, 96.901, 98.4851, 98.0741, 98.8488
1760.7, 96.5087, 98.1611, 98.4831, 98.4237, 98.5706, 98.6407, 96.927, 98.4861, 98.1178, 98.8585
1760.64, 96.5464, 98.1781, 98.484, 98.4113, 98.578, 98.6516, 96.9553, 98.4925, 98.16, 98.8716
1760.58, 96.5884, 98.1988, 98.4826, 98.4, 98.5847, 98.6573, 96.9846, 98.5046, 98.1984, 98.8864
1760.52, 96.6341, 98.2213, 98.4777, 98.3909, 98.5909, 98.6578, 97.0137, 98.5219, 98.2312, 98.9009
1760.46, 96.6826, 98.2427, 98.4694, 98.3851, 98.5968, 98.6536, 97.0417, 98.5429, 98.2574, 98.913
1760.4, 96.7327, 98.2601, 98.4582, 98.3839, 98.6027, 98.6451, 97.0678, 98.5653, 98.2771, 98.9207
1760.34, 96.7828, 98.2714, 98.4456, 98.388, 98.6083, 98.633, 97.0919, 98.5863, 98.2909, 98.9226
1760.28, 96.8308, 98.2757, 98.4331, 98.3975, 98.6134, 98.6179, 97.1137, 98.6035, 98.2999, 98.9182
1760.22, 96.8747, 98.2743, 98.4224, 98.4112, 98.6173, 98.6004, 97.1328, 98.6151, 98.3051, 98.908
1760.16, 96.9121, 98.2694, 98.4149, 98.4276, 98.62, 98.5812, 97.1488, 98.6204, 98.3073, 98.8932
1760.1, 96.9413, 98.2638, 98.4118, 98.4444, 98.6218, 98.5612, 97.1618, 98.6204, 98.307, 98.876
1760.04, 96.9611, 98.2595, 98.4137, 98.4596, 98.6235, 98.542, 97.1722, 98.6166, 98.3046, 98.8589
1759.98, 96.9719, 98.2576, 98.4206, 98.4722, 98.6267, 98.525, 97.1813, 98.6115, 98.3003, 98.8443
1759.92, 96.9753, 98.258, 98.432, 98.4818, 98.6324, 98.5123, 97.1916, 98.6067, 98.2951, 98.834
1759.86, 96.9739, 98.2595, 98.4468, 98.4887, 98.6413, 98.5051, 97.2055, 98.6034, 98.29, 98.8291
1759.8, 96.9715, 98.2611, 98.4636, 98.4936, 98.6532, 98.5042, 97.2254, 98.6019, 98.2868, 98.8297
1759.74, 96.9716, 98.2617, 98.4804, 98.4969, 98.667, 98.5092, 97.2523, 98.6013, 98.2867, 98.8354
1759.68, 96.9771, 98.2609, 98.4958, 98.4982, 98.6811, 98.5187, 97.2856, 98.6006, 98.2907, 98.8451
1759.62, 96.9898, 98.2592, 98.5084, 98.4966, 98.6941, 98.5305, 97.3228, 98.5987, 98.2985, 98.8576
1759.56, 97.01, 98.257, 98.5176, 98.4909, 98.705, 98.5423, 97.3604, 98.5951, 98.3091, 98.8719
1759.5, 97.0365, 98.2547, 98.5232, 98.48, 98.7134, 98.5523, 97.3947, 98.5896, 98.3205, 98.8868
1759.44, 97.0676, 98.2529, 98.5254, 98.4636, 98.7198, 98.5594, 97.4227, 98.5826, 98.3307, 98.9013
1759.38, 97.1011, 98.2517, 98.5249, 98.4425, 98.7249, 98.5634, 97.443, 98.5745, 98.3379, 98.9145
1759.32, 97.1352, 98.2516, 98.5223, 98.4181, 98.729, 98.565, 97.4559, 98.5657, 98.3416, 98.9253
1759.26, 97.1686, 98.2532, 98.5185, 98.3928, 98.7321, 98.5652, 97.463, 98.5564, 98.342, 98.933
1759.2, 97.2007, 98.2574, 98.5143, 98.3687, 98.7338, 98.5648, 97.4666, 98.547, 98.3407, 98.9368
1759.14, 97.2313, 98.265, 98.5107, 98.3477, 98.7332, 98.5644, 97.4689, 98.5377, 98.3396, 98.9365
1759.08, 97.2603, 98.2761, 98.5087, 98.331, 98.7297, 98.5644, 97.4718, 98.529, 98.341, 98.9321
1759.02, 97.2876, 98.2903, 98.5092, 98.319, 98.7231, 98.5647, 97.4764, 98.5213, 98.3467, 98.924
1758.96, 97.3131, 98.3061, 98.5128, 98.3119, 98.7137, 98.5653, 97.4837, 98.5149, 98.3581, 98.9132
1758.9, 97.3367, 98.3214, 98.5196, 98.3094, 98.7027, 98.5667, 97.4944, 98.5099, 98.3757, 98.9004
1758.84, 97.358, 98.3342, 98.5293, 98.3113, 98.6912, 98.569, 97.509, 98.5055, 98.3994, 98.8868
1758.78, 97.3769, 98.3432, 98.5406, 98.3171, 98.6801, 98.573, 97.5276, 98.5008, 98.4286, 98.8734
1758.72, 97.3932, 98.348, 98.5525, 98.3263, 98.6703, 98.5788, 97.5499, 98.4946, 98.462, 98.8616
1758.66, 97.4066, 98.3496, 98.5636, 98.3379, 98.6618, 98.5868, 97.5746, 98.486, 98.4982, 98.8523
1758.6, 97.4165, 98.35, 98.5726, 98.3506, 98.6547, 98.5966, 97.5995, 98.4746, 98.5351, 98.8465
1758.53, 97.4224, 98.3513, 98.579, 98.363, 98.6489, 98.6075, 97.622, 98.4613, 98.5707, 98.8445
1758.47, 97.424, 98.3553, 98.5825, 98.3736, 98.6442, 98.6184, 97.6397, 98.4474, 98.6028, 98.8461
1758.41, 97.4213, 98.3629, 98.5835, 98.3814, 98.6409, 98.628, 97.6507, 98.4351, 98.6295, 98.8505
1758.35, 97.4152, 98.3741, 98.5824, 98.3859, 98.639, 98.6345, 97.6546, 98.4264, 98.6494, 98.8561
1758.29, 97.407, 98.3879, 98.5801, 98.3875, 98.6386, 98.6363, 97.652, 98.4231, 98.662, 98.8613
1758.23, 97.3986, 98.4029, 98.5771, 98.3871, 98.6394, 98.632, 97.6445, 98.426, 98.6672, 98.8648
1758.17, 97.3919, 98.4175, 98.5739, 98.386, 98.6408, 98.621, 97.6339, 98.4346, 98.6661, 98.866
1758.11, 97.3885, 98.4302, 98.5707, 98.3855, 98.6421, 98.6039, 97.6221, 98.4475, 98.6599, 98.8652
1758.05, 97.3891, 98.4401, 98.5677, 98.3863, 98.6427, 98.5826, 97.6104, 98.4626, 98.6504, 98.8635
1757.99, 97.3937, 98.4466, 98.565, 98.3891, 98.6422, 98.5601, 97.5998, 98.4773, 98.6393, 98.8628
1757.93, 97.4019, 98.4498, 98.5628, 98.3936, 98.6404, 98.5401, 97.591, 98.4894, 98.6283, 98.8645
1757.87, 97.4128, 98.4499, 98.5611, 98.3995, 98.6377, 98.5265, 97.5846, 98.4972, 98.6188, 98.8697
1757.81, 97.426, 98.4479, 98.5605, 98.4063, 98.6346, 98.522, 97.5813, 98.5002, 98.6115, 98.8786
1757.75, 97.4415, 98.4446, 98.5614, 98.4135, 98.6316, 98.528, 97.5818, 98.4989, 98.607, 98.8901
1757.69, 97.4595, 98.4414, 98.5644, 98.4207, 98.6293, 98.544, 97.5864, 98.4945, 98.6048, 98.9027
1757.63, 97.48, 98.4395, 98.5697, 98.4276, 98.6281, 98.5678, 97.5949, 98.4886, 98.6041, 98.9145
1757.57, 97.5029, 98.4398, 98.5772, 98.4339, 98.6282, 98.5961, 97.6067, 98.4828, 98.6039, 98.9239
1757.51, 97.527, 98.4428, 98.5862, 98.4393, 98.63, 98.6252, 97.6208, 98.4783, 98.6028, 98.9301
1757.45, 97.5506, 98.4483, 98.5955, 98.4435, 98.6335, 98.6518, 97.6364, 98.4756, 98.6001, 98.933
1757.39, 97.5717, 98.4559, 98.6038, 98.446, 98.6388, 98.6733, 97.6529, 98.475, 98.5956, 98.9331
1757.33, 97.5884, 98.4644, 98.6096, 98.4465, 98.6455, 98.6881, 97.6701, 98.4767, 98.5898, 98.9315
1757.27, 97.5994, 98.4726, 98.612, 98.445, 98.6533, 98.6957, 97.6886, 98.4807, 98.584, 98.9293
1757.21, 97.6046, 98.4792, 98.6108, 98.4415, 98.6614, 98.6963, 97.7087, 98.4874, 98.5794, 98.9271
1757.15, 97.6047, 98.4833, 98.6065, 98.4367, 98.6687, 98.6907, 97.7308, 98.497, 98.577, 98.9252
1757.09, 97.6011, 98.4839, 98.6005, 98.4315, 98.6745, 98.6804, 97.7548, 98.5091, 98.5769, 98.9231
1757.03, 97.5953, 98.481, 98.5941, 98.4269, 98.6776, 98.6671, 97.7801, 98.5229, 98.5787, 98.9202
1756.97, 97.5887, 98.4745, 98.5887, 98.424, 98.6778, 98.6524, 97.8056, 98.5366, 98.581, 98.9158
1756.91, 97.5826, 98.4652, 98.585, 98.4238, 98.6746, 98.6379, 97.8301, 98.548, 98.5827, 98.9096
1756.85, 97.5776, 98.4541, 98.5834, 98.4268, 98.6686, 98.6248, 97.8524, 98.5549, 98.583, 98.9018
1756.79, 97.5742, 98.4424, 98.5835, 98.433, 98.6606, 98.6134, 97.8716, 98.5562, 98.5824, 98.8928
1756.73, 97.5727, 98.4314, 98.5846, 98.442, 98.6517, 98.6036, 97.8874, 98.5518, 98.582, 98.8836
1756.67, 97.5733, 98.4221, 98.5862, 98.4526, 98.6432, 98.5949, 97.8998, 98.5433, 98.5838, 98.8746
1756.61, 97.5761, 98.4147, 98.5876, 98.4634, 98.6364, 98.5869, 97.9089, 98.533, 98.5896, 98.8663
1756.55, 97.581, 98.409, 98.5886, 98.4729, 98.6323, 98.5793, 97.9154, 98.5235, 98.6002, 98.8584
1756.49, 97.5879, 98.4043, 98.5892, 98.4796, 98.6315, 98.5725, 97.9196, 98.5166, 98.615, 98.8503
1756.43, 97.5964, 98.3994, 98.5896, 98.4824, 98.634, 98.5668, 97.9221, 98.5131, 98.6321, 98.8417
1756.37, 97.6066, 98.3935, 98.59, 98.481, 98.6393, 98.5624, 97.9231, 98.5121, 98.6489, 98.8324
1756.31, 97.6184, 98.3863, 98.5908, 98.4754, 98.6463, 98.5588, 97.9227, 98.5122, 98.6624, 98.823
1756.24, 97.6322, 98.3778, 98.5925, 98.4666, 98.6538, 98.555, 97.9207, 98.5113, 98.6707, 98.8148
1756.18, 97.6485, 98.369, 98.5953, 98.4556, 98.6607, 98.5495, 97.9169, 98.5079, 98.6728, 98.8095
1756.12, 97.6674, 98.3609, 98.5993, 98.4435, 98.666, 98.5407, 97.9113, 98.5012, 98.6695, 98.8087
1756.06, 97.6885, 98.3549, 98.6043, 98.4312, 98.6689, 98.5282, 97.9042, 98.4917, 98.6626, 98.8129
1756, 97.7108, 98.3514, 98.6092, 98.4195, 98.6693, 98.5127, 97.8962, 98.4804, 98.6544, 98.8217
1755.94, 97.7322, 98.351, 98.6127, 98.4086, 98.6669, 98.4964, 97.8887, 98.4689, 98.6472, 98.8332
1755.88, 97.7502, 98.3532, 98.6133, 98.3989, 98.6619, 98.4827, 97.8833, 98.4587, 98.6423, 98.8446
1755.82, 97.7624, 98.3576, 98.61, 98.3908, 98.6543, 98.4752, 97.8815, 98.4509, 98.6403, 98.8529
1755.76, 97.7668, 98.3633, 98.6026, 98.3849, 98.6447, 98.4764, 97.8842, 98.4463, 98.6409, 98.8554
1755.7, 97.7626, 98.3697, 98.5922, 98.382, 98.6338, 98.4878, 97.8915, 98.4451, 98.6432, 98.8507
1755.64, 97.7501, 98.3764, 98.5813, 98.3827, 98.6228, 98.5087, 97.9027, 98.4475, 98.6464, 98.8387
1755.58, 97.7311, 98.3828, 98.5725, 98.3871, 98.6129, 98.5368, 97.9163, 98.453, 98.6494, 98.8209
1755.52, 97.7082, 98.3885, 98.5687, 98.395, 98.6059, 98.5687, 97.9305, 98.4611, 98.6518, 98.7998
1755.46, 97.6844, 98.3928, 98.5714, 98.4049, 98.603, 98.6007, 97.9436, 98.4712, 98.6531, 98.7786
1755.4, 97.6624, 98.3951, 98.5801, 98.415, 98.6046, 98.6297, 97.9542, 98.4822, 98.6531, 98.7603
1755.34, 97.6447, 98.3946, 98.5927, 98.4231, 98.6103, 98.6534, 97.9619, 98.4931, 98.6517, 98.7473
1755.28, 97.6327, 98.3909, 98.6058, 98.4278, 98.6185, 98.6706, 97.9663, 98.5028, 98.6489, 98.7412
1755.22, 97.627, 98.3837, 98.6155, 98.4281, 98.6269, 98.6811, 97.9675, 98.5106, 98.6449, 98.7425
1755.16, 97.6272, 98.3736, 98.6189, 98.4246, 98.633, 98.6855, 97.9657, 98.5157, 98.64, 98.7507
1755.1, 97.6324, 98.3615, 98.6145, 98.4186, 98.635, 98.685, 97.9608, 98.5181, 98.635, 98.7644
1755.04, 97.6413, 98.3489, 98.6031, 98.4124, 98.6322, 98.6808, 97.953, 98.5177, 98.6305, 98.7815
1754.98, 97.6527, 98.3372, 98.5873, 98.408, 98.6251, 98.6744, 97.9424, 98.5148, 98.6271, 98.7996
1754.92, 97.6655, 98.328, 98.5706, 98.4071, 98.6156, 98.667, 97.9297, 98.5096, 98.6254, 98.8162
1754.86, 97.6793, 98.3221, 98.5568, 98.4104, 98.6062, 98.6596, 97.9159, 98.5026, 98.6254, 98.8292
1754.8, 97.694, 98.32, 98.5485, 98.4173, 98.5993, 98.6524, 97.9027, 98.4941, 98.6267, 98.8372
1754.74, 97.7098, 98.3214, 98.5473, 98.4265, 98.5966, 98.6453, 97.8919, 98.4844, 98.6288, 98.8397
1754.68, 97.727, 98.3256, 98.5528, 98.4361, 98.5982, 98.6375, 97.8853, 98.4738, 98.6312, 98.8373
1754.62, 97.7455, 98.3312, 98.5635, 98.444, 98.6034, 98.628, 97.8841, 98.4624, 98.6336, 98.8311
1754.56, 97.765, 98.3369, 98.577, 98.4487, 98.6104, 98.6157, 97.889, 98.4505, 98.6357, 98.8232
1754.5, 97.7846, 98.3412, 98.5907, 98.4492, 98.6172, 98.6002, 97.8997, 98.4385, 98.6376, 98.8156
1754.44, 97.8033, 98.343, 98.6023, 98.4455, 98.622, 98.5816, 97.9149, 98.4269, 98.6397, 98.8103
1754.38, 97.82, 98.3419, 98.6101, 98.4382, 98.624, 98.5613, 97.933, 98.4164, 98.6419, 98.8089
1754.32, 97.8337, 98.3379, 98.6133, 98.4286, 98.6233, 98.5413, 97.9521, 98.4079, 98.6441, 98.812
1754.26, 97.8442, 98.3313, 98.6118, 98.4181, 98.6207, 98.5241, 97.9704, 98.402, 98.6459, 98.8198
1754.2, 97.8512, 98.3229, 98.6061, 98.4082, 98.6173, 98.5122, 97.9866, 98.3992, 98.6464, 98.8313
1754.14, 97.8554, 98.313, 98.597, 98.4003, 98.614, 98.5073, 97.9999, 98.3993, 98.6452, 98.8448
1754.08, 97.8572, 98.3019, 98.5854, 98.3951, 98.6114, 98.5101, 98.01, 98.4015, 98.6418, 98.8585
1754.01, 97.8573, 98.2895, 98.5721, 98.3933, 98.6095, 98.5198, 98.0172, 98.4048, 98.6363, 98.8701
1753.95, 97.8562, 98.2756, 98.5577, 98.3948, 98.6078, 98.5343, 98.0215, 98.4077, 98.6293, 98.8778
1753.89, 97.8544, 98.2602, 98.5425, 98.3992, 98.6055, 98.5504, 98.023, 98.4093, 98.622, 98.8808
1753.83, 97.8523, 98.2437, 98.5269, 98.4059, 98.6019, 98.5646, 98.0219, 98.4093, 98.6155, 98.8788
1753.77, 97.8503, 98.227, 98.5114, 98.4141, 98.5965, 98.5734, 98.0181, 98.4082, 98.6108, 98.8729
1753.71, 97.8485, 98.2115, 98.4967, 98.4229, 98.5891, 98.5746, 98.0118, 98.4071, 98.6085, 98.8644
1753.65, 97.8476, 98.1992, 98.4838, 98.4314, 98.5798, 98.5674, 98.0037, 98.4076, 98.6087, 98.855
1753.59, 97.8479, 98.1917, 98.4738, 98.4386, 98.5689, 98.5528, 97.995, 98.4106, 98.6109, 98.8459
1753.53, 97.8499, 98.1901, 98.4674, 98.4436, 98.5571, 98.5332, 97.9873, 98.4166, 98.6147, 98.8379
1753.47, 97.854, 98.1948, 98.4651, 98.4456, 98.5451, 98.512, 97.9822, 98.4252, 98.6193, 98.8308
1753.41, 97.8604, 98.2053, 98.4663, 98.4443, 98.5336, 98.493, 97.9811, 98.4353, 98.6244, 98.8245
1753.35, 97.869, 98.2205, 98.4704, 98.4398, 98.5236, 98.4791, 97.9846, 98.4456, 98.6298, 98.8183
1753.29, 97.8794, 98.239, 98.476, 98.4325, 98.5158, 98.4723, 97.992, 98.4548, 98.6354, 98.8122
1753.23, 97.8909, 98.2594, 98.4822, 98.4238, 98.5107, 98.4728, 98.0021, 98.4624, 98.641, 98.8064
1753.17, 97.9024, 98.2804, 98.4884, 98.4149, 98.5086, 98.4794, 98.0128, 98.4685, 98.646, 98.8016
1753.11, 97.9127, 98.3011, 98.4945, 98.4073, 98.5091, 98.4899, 98.0224, 98.4734, 98.6496, 98.7984
1753.05, 97.9208, 98.3209, 98.501, 98.4023, 98.5117, 98.5015, 98.0296, 98.4779, 98.6507, 98.7973
1752.99, 97.926, 98.339, 98.5085, 98.4003, 98.5155, 98.5114, 98.034, 98.4821, 98.6485, 98.7978
1752.93, 97.9281, 98.355, 98.5173, 98.4013, 98.5198, 98.5178, 98.0364, 98.4862, 98.6427, 98.7991
1752.87, 97.9272, 98.368, 98.5272, 98.4044, 98.5242, 98.5199, 98.0384, 98.4897, 98.6338, 98.7999
1752.81, 97.9239, 98.3774, 98.5377, 98.4084, 98.5287, 98.5182, 98.0415, 98.4918, 98.6229, 98.7987
1752.75, 97.919, 98.3829, 98.5477, 98.4119, 98.5337, 98.5141, 98.0472, 98.492, 98.6118, 98.795
1752.69, 97.9136, 98.3841, 98.5567, 98.4138, 98.54, 98.5098, 98.0564, 98.49, 98.6022, 98.7886
1752.63, 97.9083, 98.3812, 98.5641, 98.4132, 98.5482, 98.5072, 98.0687, 98.4861, 98.5954, 98.7806
1752.57, 97.904, 98.3743, 98.5699, 98.4097, 98.559, 98.5079, 98.083, 98.4812, 98.5919, 98.7725
1752.51, 97.9014, 98.3639, 98.5747, 98.4036, 98.5723, 98.5122, 98.0976, 98.4763, 98.5912, 98.7661
1752.45, 97.9009, 98.3506, 98.5786, 98.3951, 98.5879, 98.5196, 98.1104, 98.4727, 98.5924, 98.7629
1752.39, 97.9032, 98.3347, 98.5816, 98.3848, 98.6049, 98.5286, 98.1198, 98.471, 98.5941, 98.7636
1752.33, 97.9084, 98.3171, 98.5832, 98.3731, 98.6221, 98.5374, 98.1245, 98.4716, 98.5954, 98.768
1752.27, 97.9165, 98.2985, 98.5825, 98.3607, 98.6383, 98.5442, 98.1245, 98.4737, 98.5958, 98.7752
1752.21, 97.9269, 98.2797, 98.5786, 98.3478, 98.6521, 98.5479, 98.1204, 98.4762, 98.5954, 98.7841
1752.15, 97.9386, 98.2615, 98.5713, 98.335, 98.6623, 98.5482, 98.1135, 98.477, 98.5948, 98.7934
1752.09, 97.9502, 98.2449, 98.5608, 98.3228, 98.668, 98.5454, 98.1057, 98.4743, 98.5945, 98.8018
1752.03, 97.9604, 98.2304, 98.5481, 98.3114, 98.6686, 98.5401, 98.0987, 98.4669, 98.5952, 98.8087
1751.97, 97.9681, 98.2184, 98.5346, 98.3015, 98.6639, 98.5332, 98.0938, 98.4545, 98.5968, 98.8137
1751.91, 97.973, 98.2092, 98.5213, 98.2933, 98.6542, 98.5251, 98.0915, 98.438, 98.5988, 98.8167
1751.85, 97.9751, 98.2028, 98.5089, 98.2869, 98.6404, 98.5161, 98.0917, 98.4193, 98.6003, 98.8175
1751.79, 97.9755, 98.1994, 98.4973, 98.2822, 98.6234, 98.5064, 98.0937, 98.401, 98.6, 98.8163
1751.72, 97.9752, 98.1993, 98.4862, 98.2787, 98.6045, 98.4964, 98.0965, 98.3854, 98.597, 98.8133
1751.66, 97.9752, 98.2028, 98.475, 98.2762, 98.585, 98.4869, 98.0992, 98.3741, 98.5904, 98.8086
1751.6, 97.9764, 98.2101, 98.4636, 98.2741, 98.5659, 98.4791, 98.1008, 98.3671, 98.58, 98.803
1751.54, 97.9791, 98.2212, 98.4524, 98.2722, 98.5485, 98.4745, 98.1007, 98.3634, 98.5662, 98.7975
1751.48, 97.9828, 98.2358, 98.4425, 98.2703, 98.5336, 98.4741, 98.0984, 98.3612, 98.5498, 98.7929
1751.42, 97.9869, 98.2529, 98.4351, 98.2685, 98.5219, 98.4781, 98.0936, 98.3585, 98.5324, 98.7903
1751.36, 97.9908, 98.2715, 98.4311, 98.2673, 98.5139, 98.4859, 98.0861, 98.3538, 98.5156, 98.7898
1751.3, 97.9938, 98.2902, 98.4308, 98.2671, 98.5097, 98.496, 98.0762, 98.3471, 98.501, 98.7914
1751.24, 97.9958, 98.3078, 98.4333, 98.2684, 98.509, 98.5062, 98.0644, 98.339, 98.4898, 98.7941
1751.18, 97.9972, 98.3232, 98.4378, 98.2715, 98.5109, 98.5145, 98.0517, 98.331, 98.4824, 98.7968
1751.12, 97.9987, 98.3358, 98.4426, 98.2766, 98.5145, 98.5196, 98.0396, 98.3244, 98.4786, 98.7981
1751.06, 98.0014, 98.3449, 98.447, 98.2837, 98.5186, 98.5208, 98.0295, 98.3201, 98.4775, 98.7972
1751, 98.006, 98.3502, 98.4503, 98.2926, 98.5223, 98.5182, 98.0225, 98.3178, 98.4784, 98.7936
1750.94, 98.0131, 98.3517, 98.4527, 98.3027, 98.525, 98.5126, 98.0192, 98.3166, 98.4801, 98.7875
1750.88, 98.0225, 98.3494, 98.4543, 98.3133, 98.5264, 98.5048, 98.0195, 98.3152, 98.4823, 98.7796
1750.82, 98.0337, 98.3439, 98.4556, 98.3235, 98.5267, 98.4961, 98.0223, 98.3124, 98.4851, 98.7704
1750.76, 98.0455, 98.3363, 98.4562, 98.3326, 98.5264, 98.487, 98.0264, 98.3076, 98.4891, 98.7606
1750.7, 98.0567, 98.328, 98.4559, 98.3396, 98.5254, 98.4782, 98.0304, 98.3013, 98.4951, 98.7505
1750.64, 98.066, 98.3205, 98.4539, 98.3441, 98.5237, 98.4698, 98.0332, 98.2945, 98.5036, 98.7404
1750.58, 98.0727, 98.3152, 98.4492, 98.3457, 98.5207, 98.4615, 98.0341, 98.2885, 98.5145, 98.7307
1750.52, 98.0765, 98.3129, 98.4416, 98.3446, 98.5158, 98.4528, 98.0331, 98.2847, 98.5269, 98.7217
1750.46, 98.0774, 98.3139, 98.4312, 98.3409, 98.5083, 98.443, 98.0303, 98.284, 98.5393, 98.7145
1750.4, 98.0759, 98.3179, 98.4191, 98.3351, 98.4982, 98.4313, 98.026, 98.2868, 98.5495, 98.7099
1750.34, 98.0722, 98.3241, 98.4068, 98.3273, 98.4864, 98.4172, 98.021, 98.293, 98.5556, 98.7088
1750.28, 98.0665, 98.3317, 98.3965, 98.3175, 98.474, 98.4009, 98.016, 98.302, 98.5565, 98.7115
1750.22, 98.0587, 98.3398, 98.3904, 98.3057, 98.463, 98.3832, 98.012, 98.3129, 98.5518, 98.7178
1750.16, 98.0483, 98.3483, 98.3902, 98.292, 98.4555, 98.3658, 98.0103, 98.3245, 98.5422, 98.7265
1750.1, 98.0355, 98.3568, 98.3967, 98.2769, 98.4531, 98.3507, 98.012, 98.3355, 98.5294, 98.7363
1750.04, 98.0203, 98.3651, 98.4095, 98.2617, 98.4566, 98.34, 98.0181, 98.3444, 98.5152, 98.7459
1749.98, 98.0038, 98.3729, 98.4267, 98.2483, 98.4663, 98.3353, 98.0287, 98.3498, 98.5015, 98.7541
