Wavenumber, 13001_2-22.SPA, 13011_2-22.SPA, 13021_2-22.SPA, 13031_2-22.SPA, 13051_2-22.SPA, 13071_2-22.SPA, 13091_2-22.SPA
1810, 98.594, 98.3681, 98.5125, 98.5382, 98.5617, 98.6356, 98.6261
1809.94, 98.5906, 98.3585, 98.5071, 98.5492, 98.5655, 98.6361, 98.6193
1809.88, 98.5854, 98.3465, 98.5019, 98.5589, 98.5676, 98.6381, 98.6157
1809.82, 98.5794, 98.3335, 98.4969, 98.5656, 98.5681, 98.6408, 98.6149
1809.76, 98.5735, 98.3211, 98.4928, 98.5687, 98.5678, 98.6436, 98.6167
1809.7, 98.5681, 98.3108, 98.4902, 98.5686, 98.5682, 98.6461, 98.6209
1809.64, 98.5636, 98.3034, 98.4901, 98.5666, 98.5701, 98.648, 98.6272
1809.58, 98.5602, 98.2997, 98.4932, 98.5646, 98.5738, 98.6495, 98.635
1809.52, 98.558, 98.3, 98.4999, 98.5642, 98.5783, 98.6504, 98.6436
1809.46, 98.557, 98.3045, 98.5098, 98.5671, 98.582, 98.6504, 98.6516
1809.4, 98.5569, 98.3126, 98.5219, 98.5743, 98.5831, 98.6495, 98.6578
1809.34, 98.5572, 98.3232, 98.5345, 98.5861, 98.5807, 98.6474, 98.6607
1809.28, 98.5572, 98.335, 98.5459, 98.6022, 98.5747, 98.6445, 98.6596
1809.22, 98.5563, 98.346, 98.5542, 98.6213, 98.5669, 98.6412, 98.6543
1809.16, 98.5544, 98.3547, 98.5585, 98.6414, 98.5598, 98.6385, 98.6455
1809.1, 98.5515, 98.3604, 98.5587, 98.6603, 98.5563, 98.6371, 98.6346
1809.04, 98.5484, 98.3633, 98.5556, 98.6755, 98.5586, 98.6374, 98.6234
1808.98, 98.5457, 98.3648, 98.5508, 98.6849, 98.5679, 98.6396, 98.6136
1808.92, 98.5437, 98.3665, 98.5461, 98.6875, 98.5836, 98.643, 98.6062
1808.86, 98.5422, 98.3699, 98.5433, 98.683, 98.6041, 98.6469, 98.6019
1808.8, 98.5401, 98.3753, 98.5433, 98.6721, 98.6266, 98.6506, 98.6004
1808.74, 98.5361, 98.382, 98.5464, 98.6566, 98.648, 98.6533, 98.6008
1808.68, 98.5288, 98.3879, 98.5521, 98.6384, 98.6655, 98.6546, 98.6021
1808.62, 98.5176, 98.3908, 98.5595, 98.6192, 98.6768, 98.6542, 98.6031
1808.56, 98.5027, 98.3887, 98.567, 98.6007, 98.6806, 98.6518, 98.6032
1808.5, 98.4855, 98.3809, 98.5734, 98.5836, 98.6765, 98.6472, 98.6017
1808.44, 98.4679, 98.3682, 98.5773, 98.5683, 98.6654, 98.6404, 98.5987
1808.38, 98.4519, 98.3525, 98.5779, 98.5548, 98.6489, 98.6318, 98.5944
1808.32, 98.4393, 98.3363, 98.5747, 98.5425, 98.6297, 98.6224, 98.5891
1808.26, 98.4309, 98.3221, 98.5676, 98.5312, 98.6107, 98.6136, 98.5838
1808.2, 98.4268, 98.3113, 98.5571, 98.5203, 98.5945, 98.6071, 98.5795
1808.13, 98.4259, 98.3046, 98.544, 98.5095, 98.5828, 98.6043, 98.5772
1808.07, 98.4271, 98.3011, 98.5296, 98.4986, 98.576, 98.6055, 98.5781
1808.01, 98.4289, 98.3, 98.5155, 98.4878, 98.5734, 98.6101, 98.583
1807.95, 98.43, 98.2998, 98.5029, 98.4775, 98.5734, 98.6164, 98.5922
1807.89, 98.4297, 98.2997, 98.4928, 98.4686, 98.5741, 98.6221, 98.6052
1807.83, 98.4277, 98.299, 98.4859, 98.462, 98.5742, 98.625, 98.6207
1807.77, 98.4243, 98.2974, 98.482, 98.4591, 98.5735, 98.6239, 98.6366
1807.71, 98.42, 98.2946, 98.4808, 98.4608, 98.5728, 98.6187, 98.6507
1807.65, 98.4161, 98.2903, 98.4819, 98.4673, 98.5736, 98.6108, 98.6607
1807.59, 98.4137, 98.284, 98.4846, 98.4782, 98.5773, 98.6017, 98.6652
1807.53, 98.4136, 98.2754, 98.4888, 98.4924, 98.5847, 98.5935, 98.6637
1807.47, 98.4162, 98.2642, 98.4942, 98.5078, 98.5958, 98.5874, 98.6567
1807.41, 98.4211, 98.2507, 98.5006, 98.5225, 98.6093, 98.584, 98.6461
1807.35, 98.4273, 98.2356, 98.5077, 98.5344, 98.6232, 98.583, 98.634
1807.29, 98.4332, 98.2198, 98.5147, 98.5421, 98.6353, 98.5841, 98.6227
1807.23, 98.4373, 98.2044, 98.5206, 98.5446, 98.6437, 98.5871, 98.6144
1807.17, 98.4383, 98.1906, 98.5241, 98.5422, 98.6472, 98.5922, 98.6101
1807.11, 98.4358, 98.1791, 98.5242, 98.5355, 98.6453, 98.5996, 98.6104
1807.05, 98.43, 98.1707, 98.52, 98.5259, 98.6382, 98.6099, 98.6146
1806.99, 98.422, 98.1656, 98.5113, 98.515, 98.6265, 98.6227, 98.6216
1806.93, 98.413, 98.1641, 98.4986, 98.5048, 98.6114, 98.6372, 98.6298
1806.87, 98.4044, 98.166, 98.4831, 98.4966, 98.5939, 98.6517, 98.6374
1806.81, 98.3974, 98.1711, 98.4665, 98.4916, 98.5755, 98.6641, 98.643
1806.75, 98.3926, 98.1786, 98.4511, 98.4901, 98.5573, 98.6726, 98.6457
1806.69, 98.3904, 98.188, 98.439, 98.4915, 98.5404, 98.6758, 98.645
1806.63, 98.3907, 98.1982, 98.4319, 98.4949, 98.5254, 98.6734, 98.6412
1806.57, 98.3935, 98.2085, 98.4309, 98.4988, 98.5129, 98.6659, 98.6354
1806.51, 98.3983, 98.2181, 98.436, 98.5019, 98.5026, 98.6544, 98.6289
1806.45, 98.4049, 98.2265, 98.4458, 98.5032, 98.4942, 98.6399, 98.623
1806.39, 98.4128, 98.2331, 98.4581, 98.5024, 98.4874, 98.6236, 98.6188
1806.33, 98.4215, 98.2375, 98.4697, 98.4996, 98.4818, 98.6063, 98.6163
1806.27, 98.4302, 98.2389, 98.4778, 98.4951, 98.4776, 98.5886, 98.6151
1806.21, 98.4382, 98.2369, 98.4799, 98.4894, 98.4752, 98.5709, 98.6136
1806.15, 98.4451, 98.231, 98.4753, 98.4828, 98.4752, 98.5538, 98.6102
1806.09, 98.4502, 98.2211, 98.4646, 98.4751, 98.4781, 98.5378, 98.6031
1806.03, 98.4535, 98.2081, 98.4498, 98.4666, 98.484, 98.5236, 98.5916
1805.97, 98.4547, 98.1933, 98.4337, 98.4575, 98.4927, 98.5114, 98.576
1805.91, 98.4539, 98.1787, 98.4191, 98.4485, 98.5033, 98.5011, 98.5578
1805.84, 98.4511, 98.1666, 98.408, 98.4403, 98.5144, 98.4923, 98.5393
1805.78, 98.4463, 98.1586, 98.4009, 98.4337, 98.5247, 98.4846, 98.5234
1805.72, 98.4399, 98.1556, 98.3974, 98.4287, 98.5333, 98.4775, 98.5125
1805.66, 98.432, 98.1576, 98.3963, 98.4246, 98.5393, 98.4711, 98.508
1805.6, 98.4231, 98.1634, 98.396, 98.4198, 98.5426, 98.466, 98.5101
1805.54, 98.4139, 98.1712, 98.3956, 98.4125, 98.5432, 98.463, 98.5178
1805.48, 98.4051, 98.1794, 98.3949, 98.4012, 98.5414, 98.4631, 98.5291
1805.42, 98.397, 98.1865, 98.3942, 98.3856, 98.5373, 98.4666, 98.5418
1805.36, 98.3901, 98.192, 98.3944, 98.3667, 98.531, 98.4734, 98.5538
1805.3, 98.3845, 98.1959, 98.3959, 98.3469, 98.5227, 98.4826, 98.5637
1805.24, 98.3803, 98.1986, 98.3984, 98.3291, 98.5124, 98.4931, 98.5709
1805.18, 98.3776, 98.2006, 98.4013, 98.3164, 98.5006, 98.5032, 98.5756
1805.12, 98.3765, 98.2019, 98.4032, 98.3108, 98.4882, 98.5121, 98.5787
1805.06, 98.3772, 98.202, 98.4026, 98.3129, 98.4762, 98.5193, 98.5811
1805, 98.3797, 98.2001, 98.3988, 98.3219, 98.4658, 98.5249, 98.5836
1804.94, 98.3838, 98.1955, 98.3915, 98.3358, 98.4579, 98.5296, 98.5864
1804.88, 98.389, 98.1877, 98.3816, 98.3521, 98.4529, 98.5342, 98.5892
1804.82, 98.3937, 98.1768, 98.3703, 98.3684, 98.4502, 98.5396, 98.5914
1804.76, 98.3965, 98.1637, 98.3592, 98.3826, 98.449, 98.5461, 98.5919
1804.7, 98.3952, 98.1497, 98.3496, 98.3935, 98.4479, 98.5537, 98.5901
1804.64, 98.3886, 98.1367, 98.3425, 98.4005, 98.446, 98.5622, 98.5856
1804.58, 98.3758, 98.1263, 98.3381, 98.4038, 98.4427, 98.5712, 98.5788
1804.52, 98.3572, 98.1196, 98.3366, 98.4042, 98.4386, 98.5799, 98.5706
1804.46, 98.3344, 98.1168, 98.3376, 98.4031, 98.435, 98.5879, 98.5624
1804.4, 98.31, 98.1175, 98.3409, 98.4021, 98.4336, 98.5944, 98.5553
1804.34, 98.2867, 98.1204, 98.3461, 98.4027, 98.4358, 98.5987, 98.5499
1804.28, 98.2671, 98.124, 98.353, 98.4061, 98.4422, 98.5999, 98.5462
1804.22, 98.2529, 98.1267, 98.3612, 98.4124, 98.4525, 98.5977, 98.5436
1804.16, 98.2449, 98.1275, 98.3701, 98.4204, 98.4651, 98.5916, 98.5406
1804.1, 98.2424, 98.1263, 98.3791, 98.4284, 98.4781, 98.582, 98.5362
1804.04, 98.244, 98.1236, 98.3876, 98.4339, 98.4893, 98.5697, 98.5297
1803.98, 98.2479, 98.1207, 98.3951, 98.4349, 98.4971, 98.556, 98.5211
1803.92, 98.2522, 98.1188, 98.4014, 98.4305, 98.5007, 98.5423, 98.5112
1803.86, 98.2555, 98.1186, 98.4065, 98.4212, 98.5005, 98.5303, 98.5014
1803.8, 98.2568, 98.1204, 98.4104, 98.4088, 98.497, 98.5212, 98.4932
1803.74, 98.2554, 98.1231, 98.4131, 98.3958, 98.4917, 98.5155, 98.4877
1803.68, 98.2511, 98.1251, 98.4143, 98.3852, 98.4858, 98.5134, 98.4855
1803.61, 98.2438, 98.1245, 98.4131, 98.379, 98.4804, 98.5144, 98.4864
1803.55, 98.2336, 98.1203, 98.4091, 98.3781, 98.4765, 98.5178, 98.4896
1803.49, 98.2208, 98.1118, 98.4015, 98.3823, 98.4745, 98.5227, 98.4942
1803.43, 98.2058, 98.0998, 98.3904, 98.3902, 98.475, 98.5281, 98.4991
1803.37, 98.1898, 98.0858, 98.3765, 98.3993, 98.4779, 98.5333, 98.5035
1803.31, 98.1739, 98.0716, 98.3612, 98.4072, 98.4829, 98.5382, 98.5071
1803.25, 98.1595, 98.0586, 98.3462, 98.4114, 98.4894, 98.5427, 98.5096
1803.19, 98.1479, 98.0473, 98.3333, 98.41, 98.4961, 98.5472, 98.511
1803.13, 98.14, 98.0374, 98.3236, 98.4023, 98.5018, 98.5521, 98.5114
1803.07, 98.1361, 98.0277, 98.3174, 98.3888, 98.5053, 98.5578, 98.5107
1803.01, 98.1359, 98.0169, 98.3141, 98.3718, 98.5057, 98.5646, 98.5089
1802.95, 98.1384, 98.0042, 98.3124, 98.3546, 98.5026, 98.5723, 98.5062
1802.89, 98.1426, 97.9896, 98.3109, 98.3409, 98.4959, 98.5802, 98.5026
1802.83, 98.1473, 97.9736, 98.3084, 98.3344, 98.486, 98.5873, 98.4982
1802.77, 98.1516, 97.9579, 98.3047, 98.3372, 98.4733, 98.5924, 98.4932
1802.71, 98.1548, 97.9438, 98.3001, 98.3491, 98.4581, 98.5946, 98.488
1802.65, 98.1565, 97.9328, 98.2955, 98.3679, 98.4412, 98.593, 98.4829
1802.59, 98.1567, 97.9255, 98.2917, 98.3897, 98.4232, 98.5875, 98.4784
1802.53, 98.1557, 97.9219, 98.2893, 98.4099, 98.4053, 98.5787, 98.4751
1802.47, 98.1538, 97.9215, 98.2878, 98.425, 98.3891, 98.5677, 98.4736
1802.41, 98.1516, 97.9232, 98.2863, 98.4329, 98.3761, 98.5557, 98.4744
1802.35, 98.1493, 97.9259, 98.2836, 98.4341, 98.3681, 98.5443, 98.4776
1802.29, 98.1471, 97.9283, 98.2784, 98.4305, 98.3661, 98.5349, 98.4831
1802.23, 98.1447, 97.9297, 98.2705, 98.4247, 98.3705, 98.5286, 98.4903
1802.17, 98.1418, 97.9291, 98.2602, 98.419, 98.3808, 98.526, 98.498
1802.11, 98.1376, 97.9264, 98.2489, 98.4145, 98.3955, 98.5272, 98.5051
1802.05, 98.1316, 97.9213, 98.2384, 98.4108, 98.4125, 98.5314, 98.5106
1801.99, 98.1236, 97.9142, 98.2303, 98.4065, 98.4292, 98.5376, 98.5136
1801.93, 98.1137, 97.9056, 98.226, 98.4, 98.4432, 98.544, 98.514
1801.87, 98.1027, 97.8961, 98.2255, 98.3901, 98.4522, 98.5487, 98.5119
1801.81, 98.0913, 97.8863, 98.2285, 98.3769, 98.4548, 98.5495, 98.5076
1801.75, 98.0807, 97.8766, 98.2338, 98.3613, 98.4504, 98.5451, 98.5015
1801.69, 98.0713, 97.867, 98.2399, 98.3451, 98.4398, 98.5348, 98.4939
1801.63, 98.0633, 97.8577, 98.2459, 98.3304, 98.4249, 98.5189, 98.4851
1801.57, 98.0561, 97.8486, 98.2509, 98.3189, 98.4086, 98.4988, 98.4752
1801.51, 98.0486, 97.8399, 98.255, 98.3118, 98.3942, 98.4766, 98.4649
1801.45, 98.0397, 97.8322, 98.2585, 98.3094, 98.3849, 98.455, 98.455
1801.39, 98.0284, 97.8261, 98.2622, 98.3114, 98.3827, 98.4366, 98.447
1801.32, 98.0145, 97.8224, 98.2666, 98.3168, 98.3881, 98.4235, 98.4425
1801.26, 97.9983, 97.8212, 98.272, 98.3245, 98.4, 98.417, 98.4432
1801.2, 97.9811, 97.8223, 98.2781, 98.3331, 98.4158, 98.4176, 98.4498
1801.14, 97.9646, 97.8247, 98.2842, 98.3413, 98.4324, 98.4247, 98.4622
1801.08, 97.9507, 97.8266, 98.2887, 98.3484, 98.4471, 98.4372, 98.4789
1801.02, 97.9409, 97.8263, 98.2903, 98.354, 98.458, 98.4533, 98.4975
1800.96, 97.9359, 97.8219, 98.2874, 98.358, 98.4645, 98.471, 98.5152
1800.9, 97.9356, 97.812, 98.279, 98.3607, 98.4672, 98.4884, 98.5294
1800.84, 97.9389, 97.7962, 98.2646, 98.3619, 98.4672, 98.5037, 98.5383
1800.78, 97.9438, 97.7745, 98.2451, 98.3613, 98.4653, 98.5157, 98.5416
1800.72, 97.9482, 97.748, 98.222, 98.3579, 98.4621, 98.5238, 98.5403
1800.66, 97.95, 97.7186, 98.1974, 98.3507, 98.4576, 98.5278, 98.5362
1800.6, 97.9476, 97.6884, 98.1736, 98.3388, 98.4512, 98.5282, 98.5315
1800.54, 97.9404, 97.6597, 98.1525, 98.3226, 98.4425, 98.5256, 98.528
1800.48, 97.9282, 97.6346, 98.1354, 98.3036, 98.4317, 98.5209, 98.5267
1800.42, 97.9114, 97.6146, 98.1224, 98.2847, 98.4193, 98.5147, 98.5273
1800.36, 97.8907, 97.6002, 98.1127, 98.2691, 98.4065, 98.5078, 98.5292
1800.3, 97.8667, 97.591, 98.1053, 98.2597, 98.3943, 98.5008, 98.5309
1800.24, 97.8399, 97.5859, 98.0991, 98.258, 98.3839, 98.4942, 98.5316
1800.18, 97.8105, 97.5834, 98.0933, 98.2631, 98.3762, 98.4888, 98.5306
1800.12, 97.7794, 97.5821, 98.0881, 98.2723, 98.3713, 98.4851, 98.5279
1800.06, 97.7478, 97.5809, 98.0843, 98.2817, 98.3693, 98.4836, 98.524
1800, 97.7175, 97.5797, 98.0828, 98.2869, 98.3702, 98.4843, 98.5195
1799.94, 97.6907, 97.579, 98.0846, 98.2849, 98.3739, 98.4868, 98.5149
1799.88, 97.6695, 97.5793, 98.0901, 98.2742, 98.3802, 98.4899, 98.5102
1799.82, 97.6558, 97.5807, 98.0987, 98.2554, 98.3889, 98.4926, 98.5056
1799.76, 97.65, 97.5829, 98.1093, 98.2307, 98.3994, 98.4936, 98.5009
1799.7, 97.6517, 97.5845, 98.1198, 98.2034, 98.4109, 98.4923, 98.4959
1799.64, 97.6592, 97.5835, 98.1284, 98.177, 98.4221, 98.4885, 98.4909
1799.58, 97.6703, 97.5783, 98.1335, 98.1548, 98.4321, 98.4828, 98.4863
1799.52, 97.6825, 97.5675, 98.1341, 98.1392, 98.4398, 98.4763, 98.4828
1799.46, 97.6938, 97.5512, 98.1304, 98.1321, 98.4449, 98.47, 98.481
1799.4, 97.7026, 97.5305, 98.1229, 98.134, 98.447, 98.4647, 98.4813
1799.34, 97.7076, 97.5073, 98.1128, 98.1445, 98.4465, 98.4606, 98.4839
1799.28, 97.7082, 97.4838, 98.1014, 98.162, 98.4434, 98.4575, 98.4888
1799.22, 97.7039, 97.462, 98.0897, 98.1837, 98.4376, 98.4549, 98.4954
1799.16, 97.6943, 97.4429, 98.0782, 98.2062, 98.4292, 98.4524, 98.503
1799.09, 97.6793, 97.4269, 98.067, 98.2256, 98.418, 98.4498, 98.5105
1799.03, 97.6592, 97.4138, 98.0559, 98.2385, 98.404, 98.4473, 98.5168
1798.97, 97.6348, 97.403, 98.0443, 98.2429, 98.3877, 98.4456, 98.5206
1798.91, 97.6075, 97.3939, 98.0317, 98.2381, 98.3703, 98.4453, 98.5206
1798.85, 97.5788, 97.386, 98.0179, 98.2251, 98.3533, 98.447, 98.5161
1798.79, 97.5504, 97.3788, 98.0031, 98.2063, 98.3388, 98.4509, 98.5074
1798.73, 97.5237, 97.3718, 97.9874, 98.1843, 98.3283, 98.4567, 98.4952
1798.67, 97.4994, 97.3645, 97.9716, 98.1621, 98.3232, 98.4632, 98.4811
1798.61, 97.4782, 97.3561, 97.9564, 98.1418, 98.3235, 98.4694, 98.4671
1798.55, 97.4601, 97.3461, 97.9423, 98.1251, 98.3285, 98.4736, 98.455
1798.49, 97.4446, 97.3342, 97.93, 98.1125, 98.3362, 98.4749, 98.4458
1798.43, 97.4314, 97.3204, 97.9197, 98.1041, 98.3442, 98.4725, 98.4398
1798.37, 97.4196, 97.305, 97.9116, 98.0992, 98.35, 98.4666, 98.4366
1798.31, 97.4084, 97.2885, 97.9058, 98.0967, 98.3518, 98.4583, 98.435
1798.25, 97.3967, 97.2707, 97.9023, 98.0952, 98.3489, 98.4489, 98.434
1798.19, 97.3838, 97.2515, 97.9007, 98.0934, 98.3418, 98.4404, 98.433
1798.13, 97.369, 97.2303, 97.9008, 98.0901, 98.3321, 98.4345, 98.4321
1798.07, 97.3524, 97.2065, 97.9018, 98.085, 98.322, 98.4324, 98.432
1798.01, 97.3347, 97.18, 97.903, 98.0781, 98.3136, 98.4342, 98.4338
1797.95, 97.3167, 97.1512, 97.9037, 98.0707, 98.3085, 98.4395, 98.4381
1797.89, 97.2995, 97.1216, 97.9032, 98.0642, 98.3073, 98.4471, 98.4455
1797.83, 97.284, 97.0928, 97.9013, 98.0603, 98.3098, 98.4551, 98.4552
1797.77, 97.2705, 97.0666, 97.8979, 98.0603, 98.3149, 98.4622, 98.4662
1797.71, 97.2585, 97.0441, 97.8935, 98.0649, 98.3217, 98.4672, 98.4769
1797.65, 97.2474, 97.0257, 97.8886, 98.074, 98.329, 98.4694, 98.4855
1797.59, 97.2363, 97.0105, 97.8834, 98.0867, 98.3364, 98.4689, 98.491
1797.53, 97.2248, 96.9969, 97.8777, 98.1014, 98.3436, 98.4661, 98.4929
1797.47, 97.2127, 96.9832, 97.8708, 98.1159, 98.3505, 98.4615, 98.4916
1797.41, 97.2, 96.9678, 97.8615, 98.1277, 98.3569, 98.4561, 98.488
1797.35, 97.1868, 96.9497, 97.8487, 98.1343, 98.3621, 98.4506, 98.4834
1797.29, 97.1729, 96.9291, 97.8315, 98.1331, 98.3653, 98.4458, 98.479
1797.23, 97.1576, 96.9066, 97.8099, 98.1226, 98.3656, 98.4426, 98.4756
1797.17, 97.1399, 96.8834, 97.7849, 98.1026, 98.3625, 98.4417, 98.4732
1797.11, 97.1187, 96.8608, 97.7581, 98.0746, 98.3559, 98.4435, 98.4713
1797.05, 97.0935, 96.8399, 97.7318, 98.0421, 98.3465, 98.4482, 98.4693
1796.99, 97.0643, 96.8211, 97.7079, 98.0099, 98.3352, 98.455, 98.4665
1796.93, 97.032, 96.8045, 97.6877, 97.9828, 98.3232, 98.463, 98.4626
1796.86, 96.9979, 96.7896, 97.6715, 97.9646, 98.3114, 98.4706, 98.4581
1796.8, 96.9636, 96.7752, 97.6587, 97.9567, 98.3007, 98.4766, 98.4536
1796.74, 96.93, 96.7604, 97.6482, 97.9582, 98.2916, 98.4801, 98.4504
1796.68, 96.8973, 96.7437, 97.6388, 97.9655, 98.2844, 98.4808, 98.4489
1796.62, 96.8652, 96.7244, 97.6296, 97.9744, 98.2793, 98.4791, 98.4492
1796.56, 96.8325, 96.7019, 97.6202, 97.9807, 98.2765, 98.4758, 98.4502
1796.5, 96.7982, 96.6765, 97.6108, 97.9816, 98.2757, 98.4718, 98.4504
1796.44, 96.7615, 96.649, 97.6018, 97.9764, 98.2766, 98.4678, 98.4481
1796.38, 96.7221, 96.6204, 97.5936, 97.9661, 98.2784, 98.4638, 98.442
1796.32, 96.6804, 96.5924, 97.5865, 97.9523, 98.2804, 98.4595, 98.432
1796.26, 96.6375, 96.566, 97.5804, 97.937, 98.2815, 98.4542, 98.4192
1796.2, 96.5948, 96.5423, 97.5751, 97.9212, 98.281, 98.447, 98.4054
1796.14, 96.554, 96.5213, 97.5701, 97.9057, 98.2789, 98.4375, 98.3928
1796.08, 96.5166, 96.5027, 97.5655, 97.8908, 98.2753, 98.426, 98.383
1796.02, 96.4838, 96.4859, 97.5609, 97.877, 98.271, 98.4129, 98.3765
1795.96, 96.4564, 96.4698, 97.5563, 97.8652, 98.267, 98.3995, 98.3729
1795.9, 96.4346, 96.4536, 97.551, 97.8566, 98.2642, 98.3872, 98.3708
1795.84, 96.4176, 96.4365, 97.5444, 97.8516, 98.2632, 98.3774, 98.3685
1795.78, 96.4039, 96.4179, 97.5352, 97.8497, 98.2646, 98.3711, 98.3651
1795.72, 96.3916, 96.3975, 97.5221, 97.849, 98.2684, 98.3687, 98.3603
1795.66, 96.3783, 96.375, 97.5044, 97.8466, 98.2747, 98.3699, 98.3549
1795.6, 96.3622, 96.3507, 97.4817, 97.8396, 98.283, 98.374, 98.3504
1795.54, 96.3417, 96.3244, 97.455, 97.8266, 98.2929, 98.3796, 98.3483
1795.48, 96.3164, 96.2966, 97.4261, 97.808, 98.3035, 98.3851, 98.3498
1795.42, 96.287, 96.2678, 97.3972, 97.7865, 98.3135, 98.3893, 98.3554
1795.36, 96.2548, 96.2384, 97.3707, 97.7663, 98.3213, 98.3914, 98.3649
1795.3, 96.2215, 96.2089, 97.3484, 97.7515, 98.3257, 98.3911, 98.3777
1795.24, 96.1886, 96.1798, 97.3313, 97.7447, 98.3258, 98.3888, 98.3924
1795.18, 96.1573, 96.151, 97.3192, 97.746, 98.3214, 98.3849, 98.4076
1795.12, 96.1277, 96.1225, 97.3109, 97.7529, 98.3134, 98.3802, 98.4216
1795.06, 96.0993, 96.0938, 97.3048, 97.7614, 98.3033, 98.375, 98.4324
1795, 96.0709, 96.0646, 97.2988, 97.7671, 98.293, 98.3696, 98.4383
1794.94, 96.0413, 96.0348, 97.2911, 97.7672, 98.2841, 98.364, 98.4381
1794.88, 96.0096, 96.0043, 97.2805, 97.7606, 98.2778, 98.3585, 98.4314
1794.82, 95.9754, 95.9736, 97.2659, 97.7489, 98.2746, 98.3537, 98.4187
1794.76, 95.9393, 95.9431, 97.2472, 97.7351, 98.2743, 98.3505, 98.402
1794.7, 95.9022, 95.9131, 97.2244, 97.7229, 98.2765, 98.3503, 98.3842
1794.64, 95.8655, 95.8837, 97.1982, 97.7149, 98.2806, 98.3538, 98.3681
1794.57, 95.8301, 95.8547, 97.1695, 97.7124, 98.2857, 98.3615, 98.3561
1794.51, 95.7964, 95.8254, 97.1391, 97.7152, 98.2913, 98.3724, 98.3493
1794.45, 95.7643, 95.795, 97.1082, 97.7213, 98.2963, 98.3849, 98.3474
1794.39, 95.7326, 95.7628, 97.0778, 97.7282, 98.2996, 98.3964, 98.3487
1794.33, 95.7003, 95.7288, 97.0487, 97.7336, 98.2997, 98.4045, 98.3513
1794.27, 95.6664, 95.6936, 97.0219, 97.7355, 98.2952, 98.4074, 98.3531
1794.21, 95.6311, 95.6582, 96.9983, 97.7332, 98.2851, 98.4045, 98.3528
1794.15, 95.5951, 95.6242, 96.9785, 97.7268, 98.2692, 98.3967, 98.3502
1794.09, 95.5604, 95.5931, 96.9633, 97.7172, 98.2483, 98.3857, 98.3461
1794.03, 95.5289, 95.5658, 96.9532, 97.7057, 98.2239, 98.3741, 98.3414
1793.97, 95.5026, 95.5425, 96.948, 97.6935, 98.1982, 98.3639, 98.3373
1793.91, 95.4821, 95.5223, 96.9472, 97.6809, 98.1731, 98.3569, 98.3344
1793.85, 95.4671, 95.5035, 96.9495, 97.6679, 98.1504, 98.3538, 98.333
1793.79, 95.4556, 95.4842, 96.9531, 97.6534, 98.1311, 98.3547, 98.3331
1793.73, 95.445, 95.4624, 96.9558, 97.6363, 98.1156, 98.3588, 98.3346
1793.67, 95.4323, 95.437, 96.9556, 97.6155, 98.104, 98.3655, 98.3377
1793.61, 95.4149, 95.4079, 96.9513, 97.5912, 98.0964, 98.3739, 98.3425
1793.55, 95.3914, 95.3759, 96.9422, 97.5648, 98.0928, 98.3831, 98.3492
1793.49, 95.3615, 95.3428, 96.929, 97.5391, 98.0933, 98.3923, 98.3576
1793.43, 95.3265, 95.3105, 96.913, 97.5176, 98.0974, 98.4003, 98.367
1793.37, 95.2885, 95.2809, 96.8958, 97.5036, 98.1046, 98.406, 98.3765
1793.31, 95.2504, 95.2552, 96.8791, 97.4989, 98.1132, 98.4083, 98.3846
1793.25, 95.215, 95.2337, 96.8635, 97.5035, 98.1216, 98.4066, 98.3904
1793.19, 95.1848, 95.2159, 96.8492, 97.515, 98.1279, 98.4008, 98.393
1793.13, 95.161, 95.2008, 96.8353, 97.5295, 98.1306, 98.392, 98.3925
1793.07, 95.1435, 95.1871, 96.8206, 97.5426, 98.1292, 98.3817, 98.3892
1793.01, 95.1307, 95.1736, 96.804, 97.5501, 98.124, 98.3719, 98.3843
1792.95, 95.12, 95.1595, 96.7848, 97.5493, 98.1163, 98.3648, 98.3788
1792.89, 95.1079, 95.1443, 96.7633, 97.539, 98.1076, 98.3615, 98.3737
1792.83, 95.091, 95.1278, 96.7404, 97.5199, 98.0994, 98.3625, 98.3699
1792.77, 95.0669, 95.11, 96.7179, 97.4935, 98.0925, 98.367, 98.3679
1792.71, 95.0348, 95.0909, 96.6976, 97.4622, 98.0875, 98.3732, 98.3678
1792.65, 94.9959, 95.0703, 96.6811, 97.4285, 98.0842, 98.379, 98.3694
1792.59, 94.9532, 95.0483, 96.669, 97.3952, 98.0823, 98.3824, 98.3723
1792.53, 94.9106, 95.0247, 96.6614, 97.3652, 98.0817, 98.3821, 98.3762
1792.47, 94.8718, 95.0003, 96.6574, 97.3411, 98.0822, 98.3779, 98.3804
1792.41, 94.8395, 94.9759, 96.6557, 97.3251, 98.0841, 98.3704, 98.3846
1792.34, 94.8147, 94.9529, 96.6549, 97.3188, 98.0872, 98.3611, 98.3883
1792.28, 94.7965, 94.9331, 96.6543, 97.322, 98.0916, 98.3517, 98.3916
1792.22, 94.7827, 94.9179, 96.6533, 97.3334, 98.0969, 98.3434, 98.3943
1792.16, 94.7703, 94.9082, 96.652, 97.35, 98.1028, 98.337, 98.3967
1792.1, 94.7568, 94.9037, 96.6506, 97.3683, 98.109, 98.3328, 98.3988
1792.04, 94.7405, 94.9032, 96.6494, 97.3848, 98.1159, 98.3305, 98.4006
1791.98, 94.7211, 94.9043, 96.6485, 97.3972, 98.1244, 98.3294, 98.4021
1791.92, 94.6995, 94.9044, 96.6475, 97.4048, 98.1352, 98.3292, 98.4027
1791.86, 94.6777, 94.9009, 96.6461, 97.4085, 98.1491, 98.3295, 98.4021
1791.8, 94.6577, 94.8926, 96.6439, 97.4103, 98.1661, 98.3306, 98.3998
1791.74, 94.6416, 94.8794, 96.6411, 97.4126, 98.1849, 98.333, 98.3957
1791.68, 94.6307, 94.8631, 96.6382, 97.4173, 98.2035, 98.3372, 98.3895
1791.62, 94.6254, 94.8461, 96.636, 97.425, 98.2195, 98.3435, 98.3818
1791.56, 94.6255, 94.8313, 96.6355, 97.4357, 98.2304, 98.3519, 98.3732
1791.5, 94.6304, 94.8209, 96.6373, 97.4482, 98.2347, 98.3621, 98.3647
1791.44, 94.6393, 94.8157, 96.6413, 97.4614, 98.2319, 98.3734, 98.3577
1791.38, 94.6515, 94.8151, 96.6467, 97.4744, 98.2231, 98.3848, 98.3532
1791.32, 94.6665, 94.8177, 96.6521, 97.4865, 98.21, 98.3957, 98.3524
1791.26, 94.6835, 94.8213, 96.6561, 97.4975, 98.1947, 98.4055, 98.3556
1791.2, 94.7015, 94.8243, 96.6574, 97.5073, 98.1794, 98.4142, 98.3629
1791.14, 94.7192, 94.8258, 96.6556, 97.5158, 98.1654, 98.4218, 98.3735
1791.08, 94.7345, 94.8261, 96.6509, 97.5225, 98.1538, 98.4287, 98.3859
1791.02, 94.7453, 94.8259, 96.6443, 97.5269, 98.1449, 98.4355, 98.3983
1790.96, 94.7501, 94.8262, 96.6369, 97.5286, 98.1385, 98.4422, 98.409
1790.9, 94.7481, 94.8276, 96.6298, 97.5275, 98.1343, 98.4487, 98.4163
1790.84, 94.7402, 94.83, 96.6239, 97.5237, 98.1317, 98.4546, 98.4193
1790.78, 94.7284, 94.8328, 96.6195, 97.5176, 98.1303, 98.459, 98.4182
1790.72, 94.7163, 94.8357, 96.6169, 97.5095, 98.1294, 98.4607, 98.4137
1790.66, 94.7074, 94.8388, 96.6165, 97.5002, 98.1288, 98.459, 98.4074
1790.6, 94.705, 94.8428, 96.619, 97.49, 98.1285, 98.4535, 98.4013
1790.54, 94.7109, 94.8492, 96.6254, 97.4796, 98.1291, 98.4445, 98.3974
1790.48, 94.7254, 94.8596, 96.6368, 97.4698, 98.1313, 98.433, 98.3972
1790.42, 94.747, 94.875, 96.6537, 97.4617, 98.1357, 98.4206, 98.4017
1790.36, 94.7732, 94.8952, 96.676, 97.4566, 98.1426, 98.4088, 98.4105
1790.3, 94.8008, 94.919, 96.7022, 97.4556, 98.1513, 98.3991, 98.4225
1790.24, 94.8271, 94.9439, 96.7303, 97.4599, 98.1606, 98.3923, 98.4354
1790.18, 94.8499, 94.9675, 96.7571, 97.4697, 98.1686, 98.3882, 98.4464
1790.11, 94.8683, 94.988, 96.78, 97.4848, 98.1738, 98.386, 98.453
1790.05, 94.8823, 95.0047, 96.7969, 97.5046, 98.1754, 98.3846, 98.4529
1789.99, 94.8928, 95.0182, 96.8069, 97.5278, 98.1739, 98.3826, 98.4455
1789.93, 94.9013, 95.0301, 96.811, 97.5528, 98.1711, 98.3791, 98.4314
1789.87, 94.9094, 95.0422, 96.8111, 97.5777, 98.1693, 98.3736, 98.4126
1789.81, 94.9183, 95.0558, 96.8103, 97.6007, 98.1704, 98.3664, 98.3922
1789.75, 94.9294, 95.0718, 96.8113, 97.6199, 98.1758, 98.3582, 98.3736
1789.69, 94.9437, 95.0903, 96.8164, 97.6334, 98.185, 98.3498, 98.3596
1789.63, 94.9616, 95.1109, 96.8263, 97.6397, 98.1966, 98.3424, 98.3523
1789.57, 94.9837, 95.1337, 96.8404, 97.6384, 98.2088, 98.3371, 98.3523
1789.51, 95.0101, 95.1588, 96.8567, 97.6298, 98.2199, 98.3347, 98.3589
1789.45, 95.0406, 95.1866, 96.8726, 97.6155, 98.2292, 98.3358, 98.3704
1789.39, 95.0749, 95.2177, 96.8857, 97.5981, 98.2369, 98.3406, 98.3845
1789.33, 95.112, 95.252, 96.8944, 97.5807, 98.2441, 98.3487, 98.3987
1789.27, 95.151, 95.2886, 96.8989, 97.5663, 98.2517, 98.3591, 98.4107
1789.21, 95.1905, 95.3261, 96.9006, 97.557, 98.26, 98.3702, 98.4189
1789.15, 95.2289, 95.3624, 96.9017, 97.554, 98.2683, 98.3799, 98.4222
1789.09, 95.265, 95.3957, 96.9051, 97.5569, 98.2754, 98.3867, 98.4203
1789.03, 95.2976, 95.4246, 96.9128, 97.5647, 98.2794, 98.3891, 98.4136
1788.97, 95.3264, 95.4487, 96.9257, 97.5758, 98.2792, 98.3871, 98.4032
1788.91, 95.3519, 95.4686, 96.9432, 97.5887, 98.2743, 98.3815, 98.3907
1788.85, 95.3751, 95.4854, 96.9638, 97.6027, 98.2655, 98.3737, 98.378
1788.79, 95.3977, 95.5005, 96.9853, 97.6172, 98.2539, 98.366, 98.3668
1788.73, 95.4214, 95.5151, 97.0055, 97.6322, 98.2414, 98.3599, 98.3587
1788.67, 95.4476, 95.5301, 97.0227, 97.6473, 98.229, 98.3567, 98.3548
1788.61, 95.4772, 95.546, 97.0363, 97.6616, 98.218, 98.3565, 98.3552
1788.55, 95.5102, 95.5634, 97.046, 97.6736, 98.2087, 98.3587, 98.3594
1788.49, 95.546, 95.5824, 97.0521, 97.6812, 98.2019, 98.3622, 98.3665
1788.43, 95.5833, 95.6034, 97.0553, 97.6825, 98.1978, 98.3659, 98.3749
1788.37, 95.6207, 95.6264, 97.0561, 97.6764, 98.1969, 98.3688, 98.383
1788.31, 95.6564, 95.6514, 97.0554, 97.6632, 98.1994, 98.3705, 98.389
1788.25, 95.6887, 95.6782, 97.0544, 97.6448, 98.2046, 98.371, 98.3919
1788.19, 95.716, 95.7065, 97.0546, 97.6243, 98.2113, 98.3706, 98.3911
1788.13, 95.7374, 95.7362, 97.058, 97.6057, 98.2174, 98.3698, 98.3867
1788.07, 95.7528, 95.7671, 97.0663, 97.5928, 98.2209, 98.3693, 98.3802
1788.01, 95.7631, 95.799, 97.081, 97.5883, 98.22, 98.3696, 98.3732
1787.95, 95.7706, 95.8315, 97.1024, 97.5934, 98.2142, 98.3709, 98.3679
1787.89, 95.7781, 95.8642, 97.1297, 97.6076, 98.204, 98.3736, 98.3661
1787.82, 95.7889, 95.896, 97.1613, 97.6292, 98.1913, 98.3776, 98.3686
1787.76, 95.8054, 95.9257, 97.1945, 97.6559, 98.1782, 98.3828, 98.3753
1787.7, 95.8289, 95.9525, 97.2271, 97.6855, 98.167, 98.3883, 98.3846
1787.64, 95.8585, 95.9759, 97.2571, 97.7165, 98.1589, 98.3934, 98.3945
1787.58, 95.8918, 95.9966, 97.2832, 97.7478, 98.1547, 98.3971, 98.4026
1787.52, 95.9253, 96.0161, 97.3053, 97.7786, 98.1543, 98.3983, 98.4077
1787.46, 95.9555, 96.0361, 97.3237, 97.8077, 98.157, 98.3963, 98.4094
1787.4, 95.98, 96.0583, 97.3392, 97.8339, 98.1623, 98.3909, 98.409
1787.34, 95.9983, 96.0832, 97.3526, 97.8551, 98.17, 98.3821, 98.4087
1787.28, 96.0115, 96.11, 97.3645, 97.8695, 98.1798, 98.3707, 98.4106
1787.22, 96.0223, 96.1367, 97.3757, 97.8761, 98.1916, 98.3576, 98.4164
1787.16, 96.034, 96.1608, 97.3864, 97.875, 98.2052, 98.3442, 98.4265
1787.1, 96.0495, 96.1801, 97.3968, 97.8684, 98.2198, 98.3318, 98.4397
1787.04, 96.0708, 96.1939, 97.4071, 97.8595, 98.2346, 98.322, 98.4534
1786.98, 96.0987, 96.2031, 97.4171, 97.8523, 98.2483, 98.3158, 98.4646
1786.92, 96.1329, 96.2104, 97.4265, 97.85, 98.2597, 98.3141, 98.4707
1786.86, 96.1725, 96.2191, 97.4351, 97.8547, 98.2679, 98.3169, 98.4698
1786.8, 96.2161, 96.232, 97.4425, 97.8667, 98.2722, 98.3234, 98.4616
1786.74, 96.2623, 96.2508, 97.4488, 97.8845, 98.2722, 98.3325, 98.4473
1786.68, 96.3094, 96.2751, 97.4544, 97.9057, 98.2681, 98.3421, 98.4291
1786.62, 96.3558, 96.3027, 97.4597, 97.9278, 98.2604, 98.3506, 98.4099
1786.56, 96.3999, 96.3304, 97.4651, 97.9489, 98.2501, 98.3567, 98.3927
1786.5, 96.4403, 96.355, 97.471, 97.9678, 98.2385, 98.3599, 98.3799
1786.44, 96.476, 96.3746, 97.4772, 97.984, 98.2275, 98.3608, 98.373
1786.38, 96.5068, 96.3887, 97.4832, 97.9975, 98.2185, 98.3606, 98.3725
1786.32, 96.5333, 96.3986, 97.4885, 98.0082, 98.2131, 98.3609, 98.378
1786.26, 96.5564, 96.4069, 97.4927, 98.0158, 98.2119, 98.3629, 98.3883
1786.2, 96.5777, 96.4166, 97.496, 98.0203, 98.215, 98.3673, 98.4018
1786.14, 96.5985, 96.4301, 97.4994, 98.0219, 98.222, 98.3737, 98.4169
1786.08, 96.6197, 96.4489, 97.5045, 98.0219, 98.2318, 98.3812, 98.4322
1786.02, 96.6417, 96.4732, 97.5132, 98.0224, 98.2434, 98.3885, 98.4467
1785.96, 96.6645, 96.502, 97.5272, 98.0259, 98.2561, 98.3947, 98.4595
1785.9, 96.6874, 96.5336, 97.5476, 98.0349, 98.2692, 98.399, 98.4702
1785.84, 96.7102, 96.5662, 97.5745, 98.0507, 98.2826, 98.4015, 98.4784
1785.78, 96.7322, 96.5979, 97.6069, 98.0732, 98.2958, 98.4027, 98.4835
1785.72, 96.7528, 96.6275, 97.6429, 98.1009, 98.3087, 98.4036, 98.4853
1785.66, 96.7717, 96.6546, 97.6798, 98.1306, 98.3207, 98.4052, 98.4836
1785.59, 96.7885, 96.6791, 97.715, 98.1588, 98.3312, 98.4086, 98.4791
1785.53, 96.803, 96.7014, 97.7457, 98.1822, 98.3399, 98.4142, 98.473
1785.47, 96.8153, 96.722, 97.7702, 98.1979, 98.3464, 98.4224, 98.4669
1785.41, 96.8256, 96.7415, 97.7872, 98.2044, 98.3507, 98.4329, 98.4626
1785.35, 96.8347, 96.7604, 97.7969, 98.2006, 98.353, 98.4452, 98.4617
1785.29, 96.8435, 96.7791, 97.8003, 98.1864, 98.3536, 98.4582, 98.4646
1785.23, 96.853, 96.7978, 97.7992, 98.1625, 98.3528, 98.4708, 98.4707
1785.17, 96.8641, 96.8168, 97.7961, 98.13, 98.3508, 98.4816, 98.4785
1785.11, 96.8773, 96.8361, 97.7933, 98.0913, 98.348, 98.4896, 98.4858
1785.05, 96.8934, 96.8555, 97.7923, 98.0497, 98.3445, 98.4941, 98.4907
1784.99, 96.9124, 96.8745, 97.7943, 98.0092, 98.3407, 98.4948, 98.4919
1784.93, 96.9345, 96.8924, 97.7989, 97.9745, 98.3369, 98.492, 98.4891
1784.87, 96.9593, 96.9082, 97.8054, 97.9496, 98.3336, 98.4865, 98.4828
1784.81, 96.986, 96.921, 97.8123, 97.937, 98.3309, 98.4788, 98.4744
1784.75, 97.0133, 96.9303, 97.8182, 97.9377, 98.329, 98.4698, 98.4654
1784.69, 97.0395, 96.9363, 97.8222, 97.9503, 98.3279, 98.4603, 98.4571
1784.63, 97.0628, 96.9397, 97.8237, 97.972, 98.3275, 98.4509, 98.4505
1784.57, 97.0821, 96.9416, 97.8226, 97.9988, 98.328, 98.4425, 98.446
1784.51, 97.0966, 96.9431, 97.8193, 98.0267, 98.3292, 98.4361, 98.444
1784.45, 97.1065, 96.9446, 97.8141, 98.0527, 98.3315, 98.4326, 98.4444
1784.39, 97.1131, 96.946, 97.8075, 98.0744, 98.3351, 98.433, 98.4469
1784.33, 97.1175, 96.946, 97.8003, 98.091, 98.34, 98.4373, 98.451
1784.27, 97.121, 96.9429, 97.7932, 98.1027, 98.3458, 98.4449, 98.4558
1784.21, 97.124, 96.9351, 97.7871, 98.11, 98.3521, 98.4544, 98.4602
1784.15, 97.1264, 96.9217, 97.783, 98.114, 98.358, 98.4638, 98.4631
1784.09, 97.1277, 96.9033, 97.7815, 98.1153, 98.3624, 98.471, 98.4637
1784.03, 97.1273, 96.8816, 97.783, 98.1147, 98.3644, 98.4743, 98.4619
1783.97, 97.1252, 96.8598, 97.7872, 98.1123, 98.3633, 98.4728, 98.4581
1783.91, 97.1223, 96.8412, 97.7932, 98.1087, 98.3587, 98.4664, 98.4534
1783.85, 97.1199, 96.8289, 97.7997, 98.1043, 98.3507, 98.456, 98.4487
1783.79, 97.1192, 96.8245, 97.8058, 98.0998, 98.34, 98.443, 98.4449
1783.73, 97.1207, 96.8285, 97.811, 98.0961, 98.3276, 98.4291, 98.4418
1783.67, 97.1239, 96.8398, 97.8154, 98.0943, 98.3148, 98.4161, 98.439
1783.61, 97.1272, 96.8567, 97.8199, 98.0954, 98.3034, 98.4056, 98.4353
1783.55, 97.1288, 96.877, 97.8257, 98.0998, 98.2948, 98.3994, 98.4298
1783.49, 97.127, 96.8988, 97.8335, 98.1073, 98.2901, 98.3986, 98.4221
1783.43, 97.1216, 96.921, 97.8435, 98.1171, 98.2898, 98.4042, 98.4123
1783.36, 97.1136, 96.9428, 97.8551, 98.1277, 98.2937, 98.4163, 98.4017
1783.3, 97.1055, 96.9641, 97.8668, 98.1375, 98.3008, 98.434, 98.3916
1783.24, 97.1003, 96.9846, 97.8771, 98.1452, 98.3097, 98.4556, 98.3835
1783.18, 97.1009, 97.0043, 97.8851, 98.1503, 98.3189, 98.4784, 98.3785
1783.12, 97.1091, 97.023, 97.8905, 98.1533, 98.3269, 98.4993, 98.3772
1783.06, 97.1253, 97.0405, 97.8945, 98.1556, 98.3327, 98.5156, 98.3793
1783, 97.1484, 97.0569, 97.8987, 98.1588, 98.3357, 98.5254, 98.3842
1782.94, 97.1765, 97.073, 97.9053, 98.1648, 98.336, 98.5278, 98.3911
1782.88, 97.2069, 97.0895, 97.9161, 98.1742, 98.3338, 98.523, 98.399
1782.82, 97.2372, 97.1075, 97.9317, 98.1866, 98.3299, 98.5121, 98.407
1782.76, 97.2655, 97.1274, 97.9515, 98.2004, 98.3252, 98.4966, 98.4142
1782.7, 97.2903, 97.1494, 97.9738, 98.2131, 98.3209, 98.4779, 98.42
1782.64, 97.3112, 97.1722, 97.9959, 98.222, 98.3181, 98.4573, 98.4238
1782.58, 97.3279, 97.1942, 98.0152, 98.2248, 98.3179, 98.436, 98.4253
1782.52, 97.341, 97.2132, 98.0294, 98.2201, 98.321, 98.415, 98.4249
1782.46, 97.3508, 97.2271, 98.0374, 98.208, 98.327, 98.3955, 98.4234
1782.4, 97.3578, 97.2344, 98.0386, 98.1896, 98.3347, 98.3784, 98.4221
1782.34, 97.3623, 97.235, 98.0337, 98.1672, 98.3423, 98.3647, 98.4227
1782.28, 97.3643, 97.2296, 98.0235, 98.1432, 98.3472, 98.3543, 98.4264
1782.22, 97.3635, 97.2199, 98.0093, 98.1204, 98.3475, 98.347, 98.4344
1782.16, 97.3596, 97.2079, 97.9922, 98.1011, 98.3423, 98.3417, 98.4465
1782.1, 97.3525, 97.1955, 97.9729, 98.0868, 98.332, 98.3371, 98.4618
1782.04, 97.3428, 97.1839, 97.9524, 98.0785, 98.3187, 98.332, 98.4784
1781.98, 97.3315, 97.1735, 97.9312, 98.0759, 98.3055, 98.3261, 98.4938
1781.92, 97.3202, 97.1643, 97.9103, 98.0782, 98.2953, 98.3199, 98.5054
1781.86, 97.3107, 97.1558, 97.8906, 98.084, 98.2908, 98.3144, 98.5113
1781.8, 97.3043, 97.148, 97.8731, 98.0914, 98.2928, 98.3113, 98.5106
1781.74, 97.3019, 97.1412, 97.8584, 98.0986, 98.3005, 98.3118, 98.5034
1781.68, 97.3032, 97.1361, 97.847, 98.1041, 98.3119, 98.3164, 98.4912
1781.62, 97.3076, 97.1337, 97.8391, 98.1068, 98.324, 98.3246, 98.4761
1781.56, 97.3139, 97.1349, 97.8338, 98.1063, 98.3341, 98.335, 98.4606
1781.5, 97.321, 97.1398, 97.8305, 98.1028, 98.3402, 98.3458, 98.4467
1781.44, 97.328, 97.1482, 97.8282, 98.097, 98.3416, 98.3554, 98.4358
1781.38, 97.3343, 97.1588, 97.8261, 98.09, 98.3388, 98.3628, 98.4283
1781.32, 97.3395, 97.1703, 97.824, 98.083, 98.3332, 98.368, 98.4238
1781.26, 97.3432, 97.1814, 97.8221, 98.0775, 98.3266, 98.3717, 98.4216
1781.2, 97.3451, 97.191, 97.8217, 98.0749, 98.3206, 98.3755, 98.4207
1781.14, 97.3449, 97.1985, 97.8238, 98.0763, 98.3163, 98.3809, 98.4201
1781.07, 97.3427, 97.204, 97.8299, 98.0821, 98.3143, 98.389, 98.4195
1781.01, 97.339, 97.2076, 97.8406, 98.0922, 98.3147, 98.4005, 98.4183
1780.95, 97.3351, 97.2097, 97.8559, 98.1056, 98.3172, 98.415, 98.4165
1780.89, 97.3323, 97.2106, 97.8747, 98.1205, 98.3218, 98.4316, 98.4139
1780.83, 97.3318, 97.2108, 97.8948, 98.1352, 98.3285, 98.4488, 98.4102
1780.77, 97.3342, 97.2105, 97.9138, 98.1477, 98.3373, 98.4652, 98.4056
1780.71, 97.339, 97.2102, 97.9292, 98.1572, 98.3483, 98.4795, 98.4005
1780.65, 97.3448, 97.21, 97.939, 98.1638, 98.3613, 98.4906, 98.3958
1780.59, 97.3497, 97.2097, 97.9423, 98.1686, 98.3759, 98.4978, 98.3927
1780.53, 97.3516, 97.2087, 97.9395, 98.1733, 98.391, 98.5006, 98.3926
1780.47, 97.349, 97.2059, 97.9316, 98.18, 98.4054, 98.4989, 98.3964
1780.41, 97.3412, 97.2, 97.9204, 98.1899, 98.4182, 98.4922, 98.4041
1780.35, 97.3281, 97.1897, 97.9075, 98.2035, 98.4284, 98.4807, 98.4151
1780.29, 97.3105, 97.1749, 97.8942, 98.2199, 98.4359, 98.4648, 98.4278
1780.23, 97.2891, 97.1561, 97.8813, 98.2375, 98.4412, 98.4453, 98.4406
1780.17, 97.2651, 97.1352, 97.8692, 98.2539, 98.445, 98.424, 98.4518
1780.11, 97.2393, 97.1147, 97.8581, 98.267, 98.448, 98.4035, 98.4602
1780.05, 97.2131, 97.0971, 97.8484, 98.2747, 98.4507, 98.3864, 98.4654
1779.99, 97.1878, 97.0846, 97.8405, 98.2757, 98.4525, 98.3753, 98.4672
1779.93, 97.165, 97.0779, 97.8351, 98.2692, 98.4525, 98.372, 98.4661
1779.87, 97.1465, 97.0765, 97.8328, 98.2551, 98.4495, 98.377, 98.4624
1779.81, 97.1336, 97.0787, 97.8336, 98.2337, 98.4427, 98.3892, 98.4568
1779.75, 97.1269, 97.0824, 97.8374, 98.206, 98.4319, 98.4063, 98.4499
1779.69, 97.126, 97.0857, 97.8432, 98.1734, 98.4183, 98.4253, 98.4426
1779.63, 97.1294, 97.0874, 97.8502, 98.1383, 98.4039, 98.443, 98.4363
1779.57, 97.1349, 97.0872, 97.8573, 98.1032, 98.3911, 98.4572, 98.432
1779.51, 97.1397, 97.0855, 97.8637, 98.0714, 98.3822, 98.4666, 98.4308
1779.45, 97.1414, 97.0828, 97.869, 98.0457, 98.3788, 98.4712, 98.4327
1779.39, 97.1381, 97.0796, 97.8728, 98.0286, 98.3809, 98.4719, 98.4367
1779.33, 97.1292, 97.076, 97.875, 98.0214, 98.3875, 98.4703, 98.441
1779.27, 97.115, 97.0716, 97.8754, 98.0238, 98.3966, 98.4678, 98.443
1779.21, 97.0971, 97.0657, 97.8739, 98.0342, 98.406, 98.466, 98.4407
1779.15, 97.078, 97.0579, 97.8705, 98.0495, 98.4136, 98.4656, 98.4331
1779.09, 97.0606, 97.0479, 97.8655, 98.0657, 98.4181, 98.4673, 98.4206
1779.03, 97.0477, 97.036, 97.8594, 98.0789, 98.4188, 98.4712, 98.4055
1778.97, 97.0412, 97.0227, 97.853, 98.0857, 98.4159, 98.4773, 98.3912
1778.91, 97.0418, 97.0087, 97.8468, 98.0847, 98.4098, 98.4853, 98.3811
1778.84, 97.0485, 96.9944, 97.8409, 98.0763, 98.4011, 98.4943, 98.3783
1778.78, 97.0588, 96.9802, 97.8348, 98.0629, 98.3904, 98.5031, 98.3843
1778.72, 97.0693, 96.9662, 97.8274, 98.0484, 98.378, 98.5101, 98.3989
1778.66, 97.0761, 96.9524, 97.8177, 98.0369, 98.3641, 98.5139, 98.4203
1778.6, 97.0765, 96.939, 97.805, 98.0317, 98.3491, 98.513, 98.4454
1778.54, 97.069, 96.9263, 97.7894, 98.0341, 98.3334, 98.507, 98.4705
1778.48, 97.054, 96.9149, 97.7722, 98.0431, 98.3177, 98.496, 98.4921
1778.42, 97.0332, 96.9054, 97.7555, 98.0554, 98.3027, 98.4808, 98.5074
1778.36, 97.0093, 96.8983, 97.7416, 98.0669, 98.2894, 98.4629, 98.5149
1778.3, 96.985, 96.8938, 97.7326, 98.0733, 98.2785, 98.4439, 98.5144
1778.24, 96.9623, 96.8915, 97.7292, 98.072, 98.2705, 98.4253, 98.5069
1778.18, 96.9419, 96.8908, 97.7313, 98.0629, 98.2656, 98.4081, 98.4944
1778.12, 96.9238, 96.8904, 97.7373, 98.048, 98.2637, 98.393, 98.4792
1778.06, 96.9068, 96.8891, 97.745, 98.0312, 98.2645, 98.3803, 98.4637
1778, 96.89, 96.8857, 97.7524, 98.0163, 98.2678, 98.37, 98.4496
1777.94, 96.8728, 96.8792, 97.7579, 98.0062, 98.2732, 98.3619, 98.438
1777.88, 96.855, 96.8691, 97.7604, 98.0015, 98.2805, 98.3556, 98.4291
1777.82, 96.8374, 96.8553, 97.76, 98.0007, 98.2894, 98.3505, 98.4227
1777.76, 96.8207, 96.8383, 97.7571, 98.0009, 98.2994, 98.3462, 98.4184
1777.7, 96.8059, 96.8192, 97.7523, 97.9986, 98.3099, 98.3421, 98.4158
1777.64, 96.7932, 96.7993, 97.7463, 97.9913, 98.3195, 98.3384, 98.4145
1777.58, 96.7824, 96.7801, 97.7396, 97.9784, 98.3271, 98.3355, 98.4144
1777.52, 96.7728, 96.7625, 97.7325, 97.9611, 98.3312, 98.3344, 98.4154
1777.46, 96.7631, 96.7474, 97.7252, 97.942, 98.3313, 98.336, 98.4172
1777.4, 96.7519, 96.7347, 97.7175, 97.9244, 98.3277, 98.3414, 98.419
1777.34, 96.7381, 96.7234, 97.7093, 97.9111, 98.3216, 98.3509, 98.4201
1777.28, 96.721, 96.7121, 97.7004, 97.9037, 98.3151, 98.3639, 98.4197
1777.22, 96.7005, 96.699, 97.6901, 97.9023, 98.3105, 98.379, 98.4173
1777.16, 96.6774, 96.6824, 97.6781, 97.9057, 98.3092, 98.3942, 98.4127
1777.1, 96.6526, 96.6613, 97.6639, 97.9119, 98.3115, 98.4075, 98.4063
1777.04, 96.6274, 96.6354, 97.6471, 97.9187, 98.3163, 98.4172, 98.399
1776.98, 96.6026, 96.6056, 97.6276, 97.9241, 98.3214, 98.4223, 98.3918
1776.92, 96.5788, 96.5733, 97.6054, 97.9266, 98.3242, 98.4225, 98.3862
1776.86, 96.5557, 96.5406, 97.5807, 97.9254, 98.3225, 98.4181, 98.3835
1776.8, 96.5325, 96.5093, 97.5537, 97.9205, 98.3156, 98.4095, 98.3852
1776.74, 96.5081, 96.4808, 97.5249, 97.9122, 98.3038, 98.3972, 98.3924
1776.68, 96.4817, 96.4557, 97.4952, 97.9016, 98.2889, 98.3817, 98.4055
1776.62, 96.453, 96.4337, 97.4658, 97.89, 98.2731, 98.3639, 98.4241
1776.55, 96.4224, 96.4138, 97.4383, 97.8786, 98.2583, 98.3449, 98.4464
1776.49, 96.391, 96.3947, 97.4145, 97.8686, 98.2456, 98.3265, 98.4693
1776.43, 96.36, 96.3748, 97.3959, 97.8603, 98.2351, 98.311, 98.4894
1776.37, 96.3305, 96.3527, 97.3831, 97.8538, 98.2263, 98.3007, 98.503
1776.31, 96.303, 96.3277, 97.376, 97.8483, 98.219, 98.2972, 98.5078
1776.25, 96.2771, 96.299, 97.3731, 97.843, 98.2131, 98.3011, 98.503
1776.19, 96.2517, 96.2663, 97.3724, 97.8375, 98.2093, 98.3114, 98.4904
1776.13, 96.2255, 96.2297, 97.3716, 97.8318, 98.209, 98.3259, 98.4735
1776.07, 96.1971, 96.1894, 97.3687, 97.8269, 98.2133, 98.3419, 98.4567
1776.01, 96.1659, 96.1462, 97.3626, 97.8239, 98.2228, 98.3564, 98.4443
1775.95, 96.1315, 96.1013, 97.3529, 97.824, 98.2369, 98.3675, 98.4395
1775.89, 96.0942, 96.0564, 97.3401, 97.8274, 98.2538, 98.3745, 98.4433
1775.83, 96.0548, 96.0134, 97.3246, 97.833, 98.2706, 98.3776, 98.4549
1775.77, 96.0138, 95.9744, 97.3069, 97.8381, 98.2841, 98.3784, 98.4719
1775.71, 95.9712, 95.941, 97.2867, 97.8393, 98.2915, 98.3783, 98.491
1775.65, 95.9269, 95.9139, 97.2635, 97.8328, 98.2906, 98.3788, 98.5085
1775.59, 95.8805, 95.8926, 97.2371, 97.8161, 98.281, 98.3809, 98.5215
1775.53, 95.8314, 95.8757, 97.2075, 97.7885, 98.2635, 98.385, 98.5278
1775.47, 95.7794, 95.8605, 97.1755, 97.7517, 98.2406, 98.3909, 98.5262
1775.41, 95.725, 95.8442, 97.1429, 97.7098, 98.2159, 98.3982, 98.5166
1775.35, 95.6688, 95.8239, 97.1116, 97.668, 98.1936, 98.4061, 98.5001
1775.29, 95.6122, 95.7973, 97.0834, 97.6317, 98.1774, 98.4137, 98.4785
1775.23, 95.5564, 95.7631, 97.059, 97.6053, 98.1705, 98.42, 98.4546
1775.17, 95.5026, 95.7212, 97.038, 97.5908, 98.1741, 98.4237, 98.4311
1775.11, 95.4515, 95.6723, 97.0188, 97.588, 98.1875, 98.4242, 98.4109
1775.05, 95.4033, 95.618, 96.9991, 97.5941, 98.208, 98.4211, 98.3958
1774.99, 95.3579, 95.5604, 96.9765, 97.6046, 98.2314, 98.4148, 98.3864
1774.93, 95.3147, 95.5016, 96.9494, 97.6147, 98.2529, 98.4065, 98.3825
1774.87, 95.273, 95.4437, 96.9174, 97.6201, 98.2686, 98.398, 98.3826
1774.81, 95.232, 95.3878, 96.8817, 97.618, 98.2757, 98.3908, 98.3853
1774.75, 95.1908, 95.3347, 96.8449, 97.6077, 98.2741, 98.3861, 98.3894
1774.69, 95.1485, 95.2842, 96.8099, 97.5901, 98.2655, 98.384, 98.3943
1774.63, 95.1043, 95.2354, 96.7796, 97.5677, 98.2528, 98.3839, 98.4002
1774.57, 95.0571, 95.187, 96.7558, 97.5436, 98.2398, 98.3843, 98.4076
1774.51, 95.0064, 95.1374, 96.739, 97.5206, 98.2294, 98.3838, 98.4172
1774.45, 94.9516, 95.0852, 96.7281, 97.5003, 98.2235, 98.3816, 98.4294
1774.39, 94.8926, 95.0294, 96.7206, 97.4835, 98.2226, 98.378, 98.4437
1774.32, 94.8299, 94.9692, 96.7132, 97.4697, 98.226, 98.3741, 98.4593
1774.26, 94.7641, 94.9046, 96.7025, 97.4578, 98.2322, 98.3715, 98.4751
1774.2, 94.6961, 94.8358, 96.6855, 97.4467, 98.2398, 98.3718, 98.4897
1774.14, 94.6266, 94.763, 96.6603, 97.4356, 98.2476, 98.3761, 98.5022
1774.08, 94.5561, 94.6871, 96.6263, 97.4241, 98.2549, 98.384, 98.5115
1774.02, 94.4848, 94.6088, 96.5841, 97.4127, 98.2614, 98.3944, 98.5171
1773.96, 94.4127, 94.5291, 96.5353, 97.4022, 98.2666, 98.4054, 98.5185
1773.9, 94.3395, 94.4493, 96.4824, 97.3932, 98.2703, 98.415, 98.516
1773.84, 94.2653, 94.3706, 96.4283, 97.3862, 98.2721, 98.4217, 98.5098
1773.78, 94.1901, 94.2942, 96.3754, 97.3812, 98.2714, 98.4246, 98.5011
1773.72, 94.1143, 94.2208, 96.3261, 97.3775, 98.2677, 98.4241, 98.4911
1773.66, 94.0383, 94.1505, 96.2819, 97.374, 98.2607, 98.4209, 98.4812
1773.6, 93.9621, 94.0825, 96.2431, 97.3696, 98.2501, 98.4162, 98.4725
1773.54, 93.8855, 94.0157, 96.2094, 97.363, 98.2362, 98.411, 98.4653
1773.48, 93.8081, 93.9485, 96.1794, 97.3534, 98.2192, 98.4063, 98.4593
1773.42, 93.7292, 93.8795, 96.1516, 97.3403, 98.1997, 98.4025, 98.4539
1773.36, 93.6483, 93.8075, 96.1242, 97.3241, 98.1782, 98.3994, 98.4483
1773.3, 93.5649, 93.7318, 96.0957, 97.3053, 98.1555, 98.3965, 98.4421
1773.24, 93.4792, 93.6523, 96.0655, 97.2849, 98.1325, 98.3934, 98.4356
1773.18, 93.3916, 93.5693, 96.0333, 97.2639, 98.1101, 98.3894, 98.4298
1773.12, 93.3027, 93.4833, 95.9995, 97.2427, 98.0893, 98.3842, 98.4259
1773.06, 93.2127, 93.3946, 95.9647, 97.2213, 98.0714, 98.3781, 98.4247
1773, 93.1217, 93.3038, 95.9291, 97.1985, 98.0574, 98.3719, 98.4267
1772.94, 93.0291, 93.2114, 95.8925, 97.1728, 98.0479, 98.367, 98.4316
1772.88, 92.9338, 93.1178, 95.854, 97.1422, 98.0436, 98.3648, 98.4384
1772.82, 92.835, 93.0233, 95.8125, 97.1055, 98.0439, 98.3664, 98.4462
1772.76, 92.7319, 92.9284, 95.7666, 97.0622, 98.048, 98.3723, 98.4543
1772.7, 92.6247, 92.8331, 95.7154, 97.0135, 98.0538, 98.3819, 98.4625
1772.64, 92.5141, 92.7372, 95.6586, 96.9615, 98.0588, 98.3933, 98.4712
1772.58, 92.4018, 92.6406, 95.5965, 96.9093, 98.0603, 98.4042, 98.4806
1772.52, 92.2895, 92.543, 95.5304, 96.8593, 98.056, 98.4125, 98.4909
1772.46, 92.1786, 92.4445, 95.4617, 96.813, 98.0445, 98.4164, 98.5017
1772.4, 92.0703, 92.3455, 95.3921, 96.7703, 98.0258, 98.4154, 98.5122
1772.34, 91.9643, 92.2468, 95.3232, 96.73, 98.001, 98.4103, 98.521
1772.28, 91.8599, 92.1493, 95.2563, 96.6901, 97.9723, 98.4025, 98.5267
1772.22, 91.7557, 92.0537, 95.1924, 96.6492, 97.9423, 98.394, 98.5285
1772.16, 91.6502, 91.9603, 95.132, 96.6067, 97.9135, 98.3862, 98.5255
1772.1, 91.5422, 91.8687, 95.0756, 96.5633, 97.8878, 98.3802, 98.5176
1772.03, 91.4317, 91.7784, 95.023, 96.521, 97.8661, 98.3761, 98.5054
1771.97, 91.3195, 91.6886, 94.974, 96.482, 97.8485, 98.3734, 98.4897
1771.91, 91.2074, 91.5992, 94.9283, 96.4481, 97.8345, 98.3711, 98.472
1771.85, 91.0973, 91.5106, 94.8852, 96.4202, 97.824, 98.3687, 98.4542
1771.79, 90.9912, 91.4235, 94.8444, 96.3976, 97.8172, 98.3655, 98.4382
1771.73, 90.8901, 91.339, 94.8051, 96.3786, 97.8148, 98.3618, 98.4261
1771.67, 90.7939, 91.258, 94.7667, 96.3614, 97.8179, 98.3581, 98.4191
1771.61, 90.7016, 91.1802, 94.7283, 96.3441, 97.8272, 98.3549, 98.4177
1771.55, 90.6117, 91.1048, 94.6889, 96.3263, 97.8426, 98.3532, 98.4215
1771.49, 90.5225, 91.03, 94.6477, 96.308, 97.8626, 98.3531, 98.429
1771.43, 90.4331, 90.9538, 94.604, 96.2903, 97.8845, 98.3549, 98.4382
1771.37, 90.3432, 90.8742, 94.5579, 96.2743, 97.9047, 98.3582, 98.4473
1771.31, 90.2533, 90.7899, 94.5098, 96.2604, 97.9197, 98.3624, 98.4547
1771.25, 90.1643, 90.7007, 94.4607, 96.2483, 97.9269, 98.3668, 98.4597
1771.19, 90.077, 90.607, 94.4117, 96.2369, 97.9254, 98.3707, 98.4623
1771.13, 89.992, 90.5099, 94.3637, 96.2249, 97.9164, 98.3738, 98.463
1771.07, 89.9092, 90.4108, 94.3166, 96.2112, 97.9029, 98.3758, 98.4623
1771.01, 89.8282, 90.3109, 94.2701, 96.1952, 97.8887, 98.3768, 98.4611
1770.95, 89.7487, 90.2119, 94.2236, 96.1772, 97.8776, 98.3769, 98.4601
1770.89, 89.67, 90.115, 94.1765, 96.1577, 97.8722, 98.376, 98.46
1770.83, 89.5917, 90.0218, 94.129, 96.1374, 97.8735, 98.374, 98.4615
1770.77, 89.5134, 89.9337, 94.0822, 96.1165, 97.8803, 98.3706, 98.4655
1770.71, 89.4346, 89.8517, 94.0377, 96.0947, 97.8899, 98.3655, 98.4719
1770.65, 89.3548, 89.7764, 93.9976, 96.0713, 97.8985, 98.3587, 98.4801
1770.59, 89.2739, 89.7076, 93.9633, 96.046, 97.9027, 98.351, 98.4887
1770.53, 89.1922, 89.6445, 93.9351, 96.0188, 97.9001, 98.344, 98.4956
1770.47, 89.1108, 89.5858, 93.9119, 95.9907, 97.8901, 98.34, 98.4982
1770.41, 89.0318, 89.5305, 93.8919, 95.9639, 97.8742, 98.3414, 98.4952
1770.35, 88.9575, 89.4779, 93.8724, 95.9408, 97.8552, 98.3498, 98.4862
1770.29, 88.89, 89.4278, 93.8517, 95.9238, 97.8368, 98.3659, 98.4723
1770.23, 88.8304, 89.3807, 93.8287, 95.9142, 97.8222, 98.3883, 98.456
1770.17, 88.7782, 89.3373, 93.8034, 95.9125, 97.8136, 98.4142, 98.4402
1770.11, 88.7316, 89.2982, 93.7768, 95.9176, 97.8112, 98.4395, 98.4273
1770.05, 88.6877, 89.2632, 93.7501, 95.9275, 97.8135, 98.4602, 98.4187
1769.99, 88.6435, 89.2319, 93.7243, 95.9397, 97.818, 98.473, 98.4146
1769.93, 88.5971, 89.2032, 93.6999, 95.9519, 97.8218, 98.4765, 98.4143
1769.87, 88.5481, 89.1759, 93.6768, 95.9622, 97.823, 98.471, 98.4166
1769.8, 88.4979, 89.1495, 93.6544, 95.9697, 97.8209, 98.4586, 98.4202
1769.74, 88.4492, 89.1238, 93.6327, 95.9738, 97.8162, 98.4419, 98.4247
1769.68, 88.405, 89.0996, 93.6119, 95.9747, 97.8111, 98.424, 98.4297
1769.62, 88.3683, 89.0782, 93.5931, 95.973, 97.8076, 98.4068, 98.4351
1769.56, 88.3406, 89.0615, 93.5775, 95.9695, 97.8078, 98.3915, 98.4405
1769.5, 88.3225, 89.0508, 93.5663, 95.965, 97.8123, 98.3784, 98.4453
1769.44, 88.3133, 89.0472, 93.5603, 95.9608, 97.8207, 98.3671, 98.4488
1769.38, 88.3114, 89.0511, 93.5599, 95.9581, 97.8314, 98.3575, 98.4506
1769.32, 88.3151, 89.0617, 93.5645, 95.958, 97.8426, 98.3496, 98.4509
1769.26, 88.3227, 89.0778, 93.5734, 95.9613, 97.8527, 98.3441, 98.4504
1769.2, 88.3328, 89.0974, 93.5858, 95.9682, 97.8605, 98.3416, 98.4503
1769.14, 88.3443, 89.1185, 93.601, 95.9783, 97.8658, 98.3431, 98.4516
1769.08, 88.3562, 89.1393, 93.6183, 95.9904, 97.8688, 98.3488, 98.4544
1769.02, 88.3683, 89.1587, 93.6374, 96.0033, 97.8699, 98.3584, 98.458
1768.96, 88.3805, 89.1762, 93.658, 96.0156, 97.8692, 98.3709, 98.4609
1768.9, 88.3932, 89.1924, 93.6796, 96.0265, 97.8667, 98.3847, 98.4617
1768.84, 88.4072, 89.2085, 93.7018, 96.0359, 97.8621, 98.3982, 98.4594
1768.78, 88.424, 89.2263, 93.7242, 96.0443, 97.8553, 98.4096, 98.4544
1768.72, 88.4448, 89.2476, 93.7465, 96.0527, 97.8468, 98.4179, 98.4481
1768.66, 88.471, 89.2738, 93.7685, 96.0622, 97.8376, 98.4229, 98.4427
1768.6, 88.5038, 89.3056, 93.7902, 96.0735, 97.8296, 98.4248, 98.4405
1768.54, 88.5437, 89.3429, 93.8118, 96.087, 97.8249, 98.4249, 98.4431
1768.48, 88.591, 89.3847, 93.8336, 96.1024, 97.8254, 98.4244, 98.451
1768.42, 88.6451, 89.4297, 93.8561, 96.1191, 97.8324, 98.4249, 98.4637
1768.36, 88.7051, 89.4759, 93.8797, 96.1365, 97.8462, 98.4269, 98.4799
1768.3, 88.7693, 89.5221, 93.9048, 96.1538, 97.8662, 98.4305, 98.498
1768.24, 88.836, 89.567, 93.9318, 96.1706, 97.8905, 98.435, 98.5167
1768.18, 88.9032, 89.6102, 93.9613, 96.1869, 97.9169, 98.4387, 98.535
1768.12, 88.9696, 89.6522, 93.9937, 96.2026, 97.943, 98.4401, 98.5518
1768.06, 89.0344, 89.6938, 94.029, 96.2182, 97.9662, 98.4379, 98.5662
1768, 89.0974, 89.7363, 94.0672, 96.234, 97.9849, 98.4315, 98.5771
1767.94, 89.1594, 89.7814, 94.1079, 96.2508, 97.9977, 98.421, 98.5835
1767.88, 89.2213, 89.8306, 94.1503, 96.2692, 98.0039, 98.4073, 98.5842
1767.82, 89.2841, 89.8852, 94.1935, 96.2901, 98.0038, 98.3917, 98.5787
1767.76, 89.3483, 89.9456, 94.2364, 96.3141, 97.9979, 98.3753, 98.5675
1767.7, 89.4139, 90.0118, 94.2779, 96.3415, 97.9875, 98.359, 98.5517
1767.64, 89.4805, 90.0825, 94.3173, 96.3722, 97.9742, 98.3436, 98.5331
1767.58, 89.5477, 90.156, 94.3539, 96.4051, 97.96, 98.3294, 98.5138
1767.51, 89.6154, 90.2301, 94.3877, 96.4388, 97.9468, 98.317, 98.4959
1767.45, 89.6837, 90.3029, 94.4195, 96.4718, 97.9366, 98.3069, 98.4809
1767.39, 89.7533, 90.3729, 94.4503, 96.5026, 97.9306, 98.2999, 98.4698
1767.33, 89.8247, 90.4402, 94.4818, 96.5303, 97.9299, 98.2964, 98.4632
1767.27, 89.8984, 90.5058, 94.5154, 96.5546, 97.9346, 98.2967, 98.4611
1767.21, 89.9743, 90.5717, 94.5527, 96.5758, 97.9441, 98.3002, 98.4634
1767.15, 90.052, 90.64, 94.5942, 96.5947, 97.9571, 98.3063, 98.4693
1767.09, 90.1308, 90.7128, 94.64, 96.6121, 97.9719, 98.314, 98.4778
1767.03, 90.2101, 90.791, 94.6895, 96.6285, 97.9866, 98.3224, 98.4876
1766.97, 90.2899, 90.8747, 94.7417, 96.6441, 97.9993, 98.3312, 98.4966
1766.91, 90.3708, 90.9627, 94.7956, 96.6592, 98.0087, 98.3403, 98.5032
1766.85, 90.4537, 91.0532, 94.8506, 96.6737, 98.0146, 98.35, 98.5057
1766.79, 90.5394, 91.1444, 94.9066, 96.6877, 98.0175, 98.3602, 98.5035
1766.73, 90.6284, 91.2344, 94.9638, 96.7015, 98.019, 98.3707, 98.4971
1766.67, 90.7206, 91.3223, 95.0224, 96.7156, 98.0209, 98.3805, 98.488
1766.61, 90.8151, 91.4074, 95.0823, 96.7302, 98.0253, 98.3883, 98.4789
1766.55, 90.9109, 91.4898, 95.1432, 96.7456, 98.0338, 98.3927, 98.4727
1766.49, 91.0069, 91.5697, 95.204, 96.7617, 98.0471, 98.3929, 98.4719
1766.43, 91.1026, 91.6481, 95.2633, 96.778, 98.0649, 98.389, 98.4784
1766.37, 91.1976, 91.726, 95.3202, 96.7944, 98.0861, 98.3819, 98.4922
1766.31, 91.2923, 91.8046, 95.3739, 96.8108, 98.1093, 98.3737, 98.5123
1766.25, 91.3872, 91.8856, 95.4244, 96.8277, 98.1326, 98.3666, 98.5361
1766.19, 91.4825, 91.9698, 95.4722, 96.846, 98.1548, 98.3623, 98.5605
1766.13, 91.5779, 92.0579, 95.5183, 96.8669, 98.1746, 98.3623, 98.5823
1766.07, 91.6727, 92.1492, 95.5639, 96.8915, 98.1914, 98.3667, 98.5988
1766.01, 91.7658, 92.2424, 95.6101, 96.9205, 98.205, 98.3751, 98.6087
1765.95, 91.856, 92.3355, 95.6574, 96.9539, 98.2155, 98.3862, 98.6116
1765.89, 91.9424, 92.4263, 95.7058, 96.991, 98.2232, 98.3988, 98.6084
1765.83, 92.0244, 92.5133, 95.7548, 97.0303, 98.2287, 98.4115, 98.6005
1765.77, 92.1019, 92.596, 95.803, 97.0698, 98.2327, 98.4233, 98.5894
1765.71, 92.1755, 92.675, 95.8489, 97.1076, 98.236, 98.4336, 98.5768
1765.65, 92.2462, 92.7519, 95.8906, 97.142, 98.2393, 98.442, 98.5637
1765.59, 92.315, 92.8283, 95.9266, 97.1721, 98.2427, 98.4486, 98.5507
1765.53, 92.3834, 92.9056, 95.9562, 97.1978, 98.2462, 98.4537, 98.5384
1765.47, 92.4524, 92.984, 95.9797, 97.2201, 98.2494, 98.4578, 98.5267
1765.41, 92.523, 93.063, 95.999, 97.2406, 98.2518, 98.4615, 98.5157
1765.35, 92.5959, 93.1413, 96.017, 97.2614, 98.2531, 98.4654, 98.5049
1765.28, 92.6715, 93.2173, 96.0371, 97.2845, 98.2535, 98.4701, 98.4937
1765.22, 92.7501, 93.2902, 96.0623, 97.3116, 98.2536, 98.476, 98.4815
1765.16, 92.832, 93.3598, 96.0946, 97.3432, 98.2547, 98.4829, 98.4674
1765.1, 92.9178, 93.4269, 96.1341, 97.3789, 98.2577, 98.4908, 98.4511
1765.04, 93.0081, 93.4925, 96.1792, 97.4177, 98.2633, 98.4993, 98.4329
1764.98, 93.1034, 93.558, 96.2272, 97.4576, 98.2712, 98.5079, 98.4142
1764.92, 93.2039, 93.6243, 96.2747, 97.4964, 98.2802, 98.5162, 98.3973
1764.86, 93.3088, 93.6918, 96.3189, 97.5322, 98.2888, 98.5239, 98.385
1764.8, 93.4167, 93.7605, 96.3583, 97.5631, 98.2952, 98.5309, 98.3802
1764.74, 93.5252, 93.8302, 96.3927, 97.588, 98.2983, 98.5368, 98.3851
1764.68, 93.6312, 93.9008, 96.4233, 97.6064, 98.2981, 98.5417, 98.4006
1764.62, 93.7319, 93.9723, 96.4518, 97.6183, 98.2957, 98.5454, 98.4258
1764.56, 93.8252, 94.0447, 96.4802, 97.6245, 98.293, 98.5482, 98.4585
1764.5, 93.9101, 94.1182, 96.5097, 97.6262, 98.292, 98.5502, 98.4952
1764.44, 93.9867, 94.1926, 96.541, 97.6247, 98.2944, 98.5516, 98.5319
1764.38, 94.0564, 94.2674, 96.5742, 97.6214, 98.3007, 98.5527, 98.5649
1764.32, 94.1213, 94.3419, 96.609, 97.6177, 98.3101, 98.5535, 98.5914
1764.26, 94.1835, 94.4155, 96.6451, 97.6141, 98.3211, 98.5534, 98.6093
1764.2, 94.2448, 94.4877, 96.6822, 97.6107, 98.3316, 98.5519, 98.6183
1764.14, 94.3065, 94.5586, 96.7204, 97.6074, 98.3397, 98.5482, 98.619
1764.08, 94.3697, 94.6285, 96.7596, 97.6038, 98.3444, 98.5417, 98.6131
1764.02, 94.4345, 94.698, 96.7997, 97.6004, 98.3456, 98.5321, 98.6029
1763.96, 94.5013, 94.7672, 96.8401, 97.5984, 98.344, 98.5201, 98.591
1763.9, 94.5699, 94.8364, 96.8802, 97.5998, 98.3407, 98.5064, 98.58
1763.84, 94.64, 94.905, 96.9189, 97.6071, 98.3369, 98.4926, 98.572
1763.78, 94.7108, 94.972, 96.9552, 97.6227, 98.333, 98.4803, 98.5681
1763.72, 94.7811, 95.0363, 96.9882, 97.6475, 98.3292, 98.4709, 98.5688
1763.66, 94.8494, 95.0969, 97.0174, 97.6811, 98.325, 98.4651, 98.5734
1763.6, 94.9144, 95.1531, 97.0425, 97.721, 98.3199, 98.4633, 98.5805
1763.54, 94.9747, 95.2049, 97.0638, 97.7635, 98.3137, 98.4652, 98.5882
1763.48, 95.03, 95.2527, 97.0817, 97.8042, 98.3066, 98.4699, 98.5948
1763.42, 95.0807, 95.297, 97.0968, 97.8395, 98.2996, 98.4764, 98.5987
1763.36, 95.128, 95.3388, 97.1098, 97.8673, 98.2942, 98.4835, 98.599
1763.3, 95.1737, 95.3788, 97.1215, 97.8874, 98.2916, 98.4901, 98.5955
1763.24, 95.2198, 95.4179, 97.1327, 97.9011, 98.2929, 98.4952, 98.5887
1763.18, 95.2679, 95.4567, 97.1441, 97.9111, 98.2981, 98.4986, 98.5794
1763.12, 95.3194, 95.4962, 97.1565, 97.9201, 98.3064, 98.4999, 98.5689
1763.05, 95.3747, 95.5376, 97.1708, 97.9304, 98.3164, 98.4997, 98.5585
1762.99, 95.4338, 95.5819, 97.1878, 97.9431, 98.3264, 98.4986, 98.5492
1762.93, 95.4961, 95.6301, 97.2078, 97.958, 98.3348, 98.4974, 98.5417
1762.87, 95.5608, 95.6827, 97.231, 97.9745, 98.341, 98.4969, 98.5364
1762.81, 95.6267, 95.7388, 97.257, 97.9908, 98.3451, 98.4978, 98.5329
1762.75, 95.6927, 95.7965, 97.2845, 98.0055, 98.3479, 98.5005, 98.5302
1762.69, 95.7577, 95.8529, 97.3121, 98.0172, 98.3508, 98.5053, 98.5272
1762.63, 95.8204, 95.9044, 97.3379, 98.0246, 98.3551, 98.5123, 98.5226
1762.57, 95.8798, 95.9477, 97.3602, 98.0273, 98.3617, 98.5217, 98.5154
1762.51, 95.9351, 95.9809, 97.3783, 98.025, 98.3711, 98.5336, 98.5052
1762.45, 95.9858, 96.0036, 97.3921, 98.0181, 98.383, 98.5483, 98.4922
1762.39, 96.0318, 96.0175, 97.4032, 98.0072, 98.3968, 98.5654, 98.4777
1762.33, 96.0733, 96.0256, 97.4138, 97.9934, 98.4118, 98.5844, 98.4634
1762.27, 96.1106, 96.0318, 97.4268, 97.9783, 98.4271, 98.604, 98.4515
1762.21, 96.1445, 96.0396, 97.4446, 97.9634, 98.4417, 98.6222, 98.4442
1762.15, 96.1757, 96.0516, 97.4692, 97.9506, 98.4546, 98.6372, 98.4431
1762.09, 96.2049, 96.0687, 97.5008, 97.9416, 98.4646, 98.6471, 98.449
1762.03, 96.233, 96.0911, 97.5382, 97.9379, 98.4708, 98.6512, 98.4616
1761.97, 96.2608, 96.1175, 97.5789, 97.9408, 98.4723, 98.6494, 98.4794
1761.91, 96.2891, 96.1468, 97.6193, 97.9509, 98.4687, 98.6431, 98.4998
1761.85, 96.3185, 96.1779, 97.6559, 97.9676, 98.4608, 98.6344, 98.52
1761.79, 96.3495, 96.2102, 97.6858, 97.9896, 98.45, 98.6256, 98.5372
1761.73, 96.3822, 96.2436, 97.7075, 98.0144, 98.4386, 98.6189, 98.5492
1761.67, 96.416, 96.2781, 97.721, 98.0384, 98.4289, 98.6154, 98.5553
1761.61, 96.4503, 96.3137, 97.7279, 98.058, 98.4228, 98.6155, 98.556
1761.55, 96.484, 96.3503, 97.7304, 98.07, 98.4211, 98.6185, 98.5527
1761.49, 96.5164, 96.3875, 97.7312, 98.072, 98.4232, 98.6234, 98.5474
1761.43, 96.547, 96.4249, 97.7322, 98.0637, 98.4275, 98.6286, 98.5416
1761.37, 96.576, 96.4622, 97.7346, 98.046, 98.4316, 98.6329, 98.5365
1761.31, 96.6039, 96.4989, 97.7386, 98.0216, 98.4334, 98.635, 98.5323
1761.25, 96.6321, 96.5349, 97.7437, 97.9943, 98.4314, 98.6338, 98.5285
1761.19, 96.6615, 96.57, 97.749, 97.9678, 98.4255, 98.6287, 98.5245
1761.13, 96.6931, 96.604, 97.7538, 97.946, 98.4167, 98.6191, 98.5196
1761.07, 96.7275, 96.6368, 97.7579, 97.9318, 98.4069, 98.6049, 98.5139
1761.01, 96.7645, 96.6686, 97.7615, 97.9272, 98.398, 98.587, 98.5079
1760.95, 96.8036, 96.6997, 97.7654, 97.933, 98.3913, 98.5665, 98.5027
1760.89, 96.8438, 96.7307, 97.7703, 97.9492, 98.387, 98.5455, 98.4993
1760.83, 96.8842, 96.7624, 97.7771, 97.9744, 98.3845, 98.5263, 98.4982
1760.76, 96.9241, 96.7953, 97.7864, 98.0068, 98.3823, 98.511, 98.4996
1760.7, 96.9628, 96.8295, 97.7985, 98.043, 98.3792, 98.5012, 98.5028
1760.64, 97, 96.8643, 97.8137, 98.0797, 98.3742, 98.4975, 98.5069
1760.58, 97.0353, 96.8986, 97.832, 98.113, 98.3678, 98.4993, 98.511
1760.52, 97.0683, 96.9309, 97.8528, 98.1399, 98.3615, 98.5054, 98.5147
1760.46, 97.0984, 96.9596, 97.8753, 98.1583, 98.3571, 98.5139, 98.518
1760.4, 97.1253, 96.9837, 97.8981, 98.1677, 98.357, 98.5231, 98.5215
1760.34, 97.1484, 97.0028, 97.9193, 98.1693, 98.3625, 98.5315, 98.5259
1760.28, 97.1675, 97.0172, 97.937, 98.1653, 98.3742, 98.5383, 98.532
1760.22, 97.1826, 97.0278, 97.9497, 98.1588, 98.3911, 98.5429, 98.5401
1760.16, 97.194, 97.0359, 97.9569, 98.1524, 98.4114, 98.545, 98.5501
1760.1, 97.2023, 97.0428, 97.959, 98.1483, 98.4325, 98.5448, 98.561
1760.04, 97.2083, 97.0496, 97.9579, 98.1475, 98.4518, 98.542, 98.5716
1759.98, 97.2129, 97.0571, 97.9559, 98.1503, 98.4669, 98.5371, 98.58
1759.92, 97.2171, 97.0655, 97.9553, 98.1562, 98.4762, 98.5302, 98.5846
1759.86, 97.2222, 97.0746, 97.9579, 98.1646, 98.479, 98.5224, 98.5842
1759.8, 97.2293, 97.0836, 97.9645, 98.175, 98.4752, 98.5146, 98.5782
1759.74, 97.2397, 97.0914, 97.9749, 98.1867, 98.4658, 98.5082, 98.5669
1759.68, 97.2542, 97.0972, 97.9882, 98.1995, 98.4526, 98.5042, 98.5519
1759.62, 97.2733, 97.1004, 98.0036, 98.2129, 98.4379, 98.5034, 98.5355
1759.56, 97.2967, 97.1014, 98.02, 98.226, 98.4242, 98.5058, 98.5204
1759.5, 97.3238, 97.1016, 98.037, 98.2382, 98.4139, 98.5109, 98.5091
1759.44, 97.3531, 97.1031, 98.0541, 98.2486, 98.4088, 98.5182, 98.5032
1759.38, 97.3834, 97.1084, 98.0706, 98.2564, 98.4094, 98.5269, 98.503
1759.32, 97.4133, 97.1195, 98.0856, 98.2613, 98.415, 98.5366, 98.5074
1759.26, 97.442, 97.1375, 98.0977, 98.2635, 98.4235, 98.5472, 98.5139
1759.2, 97.4689, 97.162, 98.1057, 98.2633, 98.4322, 98.5588, 98.52
1759.14, 97.4937, 97.1914, 98.1086, 98.2614, 98.4384, 98.5716, 98.5232
1759.08, 97.5162, 97.2234, 98.1065, 98.2584, 98.4398, 98.5855, 98.5225
1759.02, 97.5361, 97.2558, 98.1001, 98.2551, 98.4358, 98.6, 98.5182
1758.96, 97.553, 97.2866, 98.0909, 98.2521, 98.4271, 98.6142, 98.5123
1758.9, 97.5668, 97.3154, 98.0807, 98.25, 98.4158, 98.6273, 98.5074
1758.84, 97.5774, 97.3421, 98.0711, 98.2497, 98.4045, 98.6385, 98.506
1758.78, 97.5854, 97.3674, 98.063, 98.2519, 98.3959, 98.6479, 98.5097
1758.72, 97.5917, 97.3916, 98.057, 98.2572, 98.3922, 98.6557, 98.5183
1758.66, 97.5976, 97.4146, 98.0534, 98.266, 98.3943, 98.6628, 98.5305
1758.6, 97.6042, 97.4356, 98.0525, 98.2778, 98.4025, 98.6701, 98.5436
1758.53, 97.6123, 97.4533, 98.0546, 98.2914, 98.4158, 98.6784, 98.555
1758.47, 97.6219, 97.4664, 98.0602, 98.3051, 98.4331, 98.688, 98.5627
1758.41, 97.6326, 97.4742, 98.0694, 98.3168, 98.4528, 98.6983, 98.566
1758.35, 97.6435, 97.4768, 98.0819, 98.3246, 98.4731, 98.7085, 98.5657
1758.29, 97.6536, 97.4746, 98.0966, 98.3276, 98.4925, 98.7174, 98.5632
1758.23, 97.6621, 97.469, 98.1119, 98.3255, 98.509, 98.724, 98.5605
1758.17, 97.6688, 97.4612, 98.126, 98.3193, 98.5212, 98.7274, 98.559
1758.11, 97.6737, 97.4524, 98.1376, 98.3109, 98.5279, 98.7274, 98.5587
1758.05, 97.6776, 97.4437, 98.1463, 98.3025, 98.5287, 98.724, 98.559
1757.99, 97.6811, 97.4363, 98.1526, 98.2963, 98.5243, 98.7175, 98.5585
1757.93, 97.6852, 97.4311, 98.158, 98.2938, 98.5161, 98.7085, 98.556
1757.87, 97.6907, 97.4293, 98.1644, 98.2957, 98.5063, 98.6977, 98.5512
1757.81, 97.6983, 97.432, 98.1734, 98.3017, 98.4973, 98.6858, 98.5448
1757.75, 97.7087, 97.4395, 98.1861, 98.3107, 98.4907, 98.6739, 98.5387
1757.69, 97.722, 97.4517, 98.2025, 98.3211, 98.4874, 98.663, 98.5351
1757.63, 97.7376, 97.4677, 98.2217, 98.3313, 98.487, 98.6541, 98.5357
1757.57, 97.7546, 97.4859, 98.2419, 98.3397, 98.4884, 98.6479, 98.5414
1757.51, 97.7712, 97.5048, 98.261, 98.3454, 98.49, 98.6446, 98.5514
1757.45, 97.7852, 97.523, 98.2769, 98.3482, 98.4904, 98.6437, 98.564
1757.39, 97.7948, 97.5395, 98.2879, 98.3485, 98.4893, 98.6438, 98.577
1757.33, 97.7989, 97.5542, 98.2929, 98.3471, 98.487, 98.6435, 98.5888
1757.27, 97.7976, 97.5672, 98.2917, 98.3453, 98.4847, 98.6409, 98.5985
1757.21, 97.792, 97.5787, 98.2849, 98.344, 98.4837, 98.635, 98.6067
1757.15, 97.7845, 97.5888, 98.274, 98.3438, 98.4852, 98.6255, 98.6146
1757.09, 97.7775, 97.5972, 98.261, 98.3449, 98.4892, 98.6131, 98.6235
1757.03, 97.7733, 97.6034, 98.2478, 98.3467, 98.4948, 98.5992, 98.6338
1756.97, 97.7731, 97.6071, 98.2359, 98.3483, 98.5005, 98.5859, 98.645
1756.91, 97.7773, 97.6082, 98.2261, 98.3487, 98.5044, 98.5747, 98.6555
1756.85, 97.7852, 97.6068, 98.2185, 98.3472, 98.5052, 98.5668, 98.6632
1756.79, 97.7957, 97.6037, 98.2125, 98.3434, 98.5026, 98.562, 98.6663
1756.73, 97.8077, 97.5996, 98.2074, 98.3374, 98.4973, 98.5597, 98.6642
1756.67, 97.8203, 97.5952, 98.2025, 98.3298, 98.4909, 98.5582, 98.6574
1756.61, 97.833, 97.5914, 98.1973, 98.3213, 98.4856, 98.5563, 98.6477
1756.55, 97.8453, 97.5886, 98.1918, 98.3127, 98.4826, 98.553, 98.6372
1756.49, 97.8565, 97.5875, 98.186, 98.3044, 98.4829, 98.5483, 98.6278
1756.43, 97.8659, 97.5886, 98.18, 98.2971, 98.4857, 98.5425, 98.6201
1756.37, 97.8728, 97.5929, 98.1738, 98.2911, 98.4898, 98.5366, 98.6138
1756.31, 97.8767, 97.6009, 98.1677, 98.2869, 98.4933, 98.5313, 98.6073
1756.24, 97.8776, 97.613, 98.1621, 98.2853, 98.4944, 98.5268, 98.5989
1756.18, 97.8765, 97.629, 98.1581, 98.2865, 98.4922, 98.5229, 98.5871
1756.12, 97.8749, 97.6482, 98.157, 98.2904, 98.4865, 98.5192, 98.5711
1756.06, 97.8745, 97.6692, 98.1604, 98.2962, 98.4779, 98.5151, 98.5512
1756, 97.8766, 97.6904, 98.1695, 98.3025, 98.4678, 98.5106, 98.5288
1755.94, 97.8818, 97.7102, 98.1842, 98.3074, 98.4575, 98.5062, 98.506
1755.88, 97.8894, 97.7274, 98.2036, 98.3092, 98.4481, 98.5034, 98.4854
1755.82, 97.8978, 97.7411, 98.2251, 98.3069, 98.4402, 98.5033, 98.4691
1755.76, 97.9052, 97.751, 98.2459, 98.3006, 98.4341, 98.5071, 98.4592
1755.7, 97.9098, 97.7569, 98.2632, 98.2914, 98.4298, 98.5152, 98.4566
1755.64, 97.9106, 97.7591, 98.2754, 98.2811, 98.4272, 98.5266, 98.4612
1755.58, 97.9078, 97.7577, 98.2822, 98.2714, 98.4263, 98.5399, 98.4718
1755.52, 97.9023, 97.7532, 98.2847, 98.2635, 98.4273, 98.5525, 98.4864
1755.46, 97.8958, 97.7463, 98.2845, 98.2576, 98.4307, 98.5622, 98.5021
1755.4, 97.8898, 97.7381, 98.2835, 98.2531, 98.4368, 98.5674, 98.5163
1755.34, 97.8859, 97.73, 98.2826, 98.2495, 98.446, 98.567, 98.5268
1755.28, 97.8847, 97.7235, 98.282, 98.2462, 98.4589, 98.5613, 98.5325
1755.22, 97.8866, 97.7202, 98.2809, 98.244, 98.4756, 98.5512, 98.5337
1755.16, 97.8914, 97.7209, 98.2785, 98.2444, 98.496, 98.5384, 98.5317
1755.1, 97.8986, 97.7259, 98.2739, 98.2493, 98.5194, 98.5248, 98.5284
1755.04, 97.9077, 97.7349, 98.2672, 98.2605, 98.5445, 98.5125, 98.5257
1754.98, 97.918, 97.7467, 98.2588, 98.2789, 98.5691, 98.5032, 98.5248
1754.92, 97.9292, 97.7602, 98.2498, 98.3041, 98.5902, 98.4987, 98.5258
1754.86, 97.9406, 97.7739, 98.2413, 98.334, 98.6047, 98.4999, 98.5281
1754.8, 97.9518, 97.7869, 98.2341, 98.3659, 98.6096, 98.5073, 98.5305
1754.74, 97.9621, 97.7985, 98.2286, 98.3968, 98.603, 98.5205, 98.5321
1754.68, 97.9713, 97.8086, 98.225, 98.4241, 98.5846, 98.5379, 98.5324
1754.62, 97.9788, 97.8172, 98.223, 98.446, 98.556, 98.5575, 98.5318
1754.56, 97.9843, 97.8247, 98.2225, 98.4618, 98.5202, 98.5764, 98.5312
1754.5, 97.9875, 97.831, 98.2236, 98.4714, 98.4814, 98.5922, 98.5317
1754.44, 97.988, 97.836, 98.2262, 98.4752, 98.4437, 98.6028, 98.5343
1754.38, 97.9857, 97.8395, 98.2301, 98.4742, 98.4107, 98.6072, 98.5393
1754.32, 97.9805, 97.8411, 98.2347, 98.4694, 98.3848, 98.6058, 98.5465
1754.26, 97.9731, 97.8408, 98.2389, 98.4621, 98.3669, 98.6002, 98.5549
1754.2, 97.9643, 97.8386, 98.2415, 98.4535, 98.3564, 98.5923, 98.5636
1754.14, 97.9556, 97.8351, 98.2417, 98.4449, 98.3521, 98.5845, 98.5717
1754.08, 97.9485, 97.8308, 98.2391, 98.4372, 98.3521, 98.5781, 98.5782
1754.01, 97.9442, 97.8266, 98.2342, 98.4307, 98.3548, 98.5737, 98.5828
1753.95, 97.9434, 97.8231, 98.2284, 98.425, 98.3588, 98.5708, 98.5852
1753.89, 97.9459, 97.8203, 98.2239, 98.4196, 98.363, 98.5678, 98.5854
1753.83, 97.9506, 97.818, 98.2228, 98.4135, 98.3666, 98.5629, 98.584
1753.77, 97.9562, 97.8157, 98.2267, 98.4063, 98.3693, 98.5548, 98.5815
1753.71, 97.9611, 97.8126, 98.2361, 98.3978, 98.3707, 98.5425, 98.579
1753.65, 97.9644, 97.8083, 98.2504, 98.3885, 98.3708, 98.5264, 98.5775
1753.59, 97.9659, 97.8029, 98.2676, 98.3791, 98.3697, 98.5078, 98.5779
1753.53, 97.9662, 97.7972, 98.2849, 98.3704, 98.3675, 98.4887, 98.5812
1753.47, 97.9668, 97.7924, 98.2992, 98.3629, 98.3649, 98.4713, 98.587
1753.41, 97.9688, 97.7898, 98.3076, 98.3568, 98.3625, 98.4575, 98.5949
1753.35, 97.9735, 97.7907, 98.3085, 98.3522, 98.3612, 98.4487, 98.6032
1753.29, 97.9811, 97.7956, 98.3014, 98.3489, 98.3618, 98.4451, 98.6104
1753.23, 97.9911, 97.8043, 98.2871, 98.3469, 98.3651, 98.4463, 98.6146
1753.17, 98.0024, 97.8156, 98.2677, 98.3461, 98.3718, 98.451, 98.6144
1753.11, 98.0136, 97.8279, 98.2462, 98.3461, 98.382, 98.4581, 98.6094
1753.05, 98.0237, 97.8392, 98.2257, 98.3462, 98.3956, 98.4659, 98.5995
1752.99, 98.0319, 97.8481, 98.2091, 98.345, 98.4119, 98.4735, 98.5859
1752.93, 98.0381, 97.8537, 98.1985, 98.3413, 98.4297, 98.4801, 98.57
1752.87, 98.0425, 97.8557, 98.1952, 98.3341, 98.4473, 98.4854, 98.5536
1752.81, 98.0457, 97.855, 98.199, 98.3235, 98.4629, 98.4891, 98.5385
1752.75, 98.0478, 97.8525, 98.2088, 98.3109, 98.475, 98.4912, 98.5265
1752.69, 98.049, 97.8495, 98.2225, 98.299, 98.4821, 98.4919, 98.5189
1752.63, 98.0489, 97.8472, 98.2374, 98.2909, 98.4838, 98.491, 98.5162
1752.57, 98.0472, 97.8461, 98.2509, 98.2893, 98.4802, 98.4885, 98.5186
1752.51, 98.0436, 97.8466, 98.261, 98.2954, 98.472, 98.4844, 98.525
1752.45, 98.038, 97.8485, 98.2664, 98.3085, 98.4609, 98.4784, 98.534
1752.39, 98.0306, 97.8515, 98.267, 98.3259, 98.4487, 98.4707, 98.5433
1752.33, 98.0221, 97.855, 98.2633, 98.344, 98.4373, 98.4614, 98.5508
1752.27, 98.0135, 97.8586, 98.2566, 98.359, 98.4279, 98.4507, 98.5543
1752.21, 98.0058, 97.862, 98.2478, 98.3682, 98.4214, 98.4394, 98.5524
1752.15, 98.0002, 97.8649, 98.2377, 98.3707, 98.4176, 98.4281, 98.5446
1752.09, 97.9979, 97.8669, 98.2264, 98.3673, 98.4154, 98.4179, 98.5313
1752.03, 97.9997, 97.8679, 98.2138, 98.3603, 98.4136, 98.4098, 98.514
1751.97, 98.0063, 97.8678, 98.1997, 98.3525, 98.4104, 98.4052, 98.4948
1751.91, 98.018, 97.8665, 98.1845, 98.3461, 98.4048, 98.405, 98.476
1751.85, 98.0347, 97.8643, 98.1691, 98.3426, 98.3966, 98.4101, 98.4601
1751.79, 98.0553, 97.8618, 98.1551, 98.3418, 98.3865, 98.4205, 98.4491
1751.72, 98.0783, 97.8597, 98.1442, 98.3428, 98.3762, 98.436, 98.4442
1751.66, 98.1019, 97.8591, 98.1375, 98.3438, 98.3674, 98.4555, 98.4458
1751.6, 98.1241, 97.8607, 98.1356, 98.3429, 98.3618, 98.4772, 98.4533
1751.54, 98.1429, 97.8652, 98.1376, 98.3387, 98.3601, 98.499, 98.4651
1751.48, 98.1573, 97.8727, 98.1422, 98.3305, 98.3621, 98.5185, 98.4791
1751.42, 98.1671, 97.883, 98.1476, 98.3189, 98.3664, 98.5336, 98.493
1751.36, 98.1729, 97.8952, 98.1526, 98.3058, 98.3709, 98.5428, 98.5044
1751.3, 98.1763, 97.9082, 98.1565, 98.2937, 98.3739, 98.5456, 98.5119
1751.24, 98.1787, 97.921, 98.1596, 98.2853, 98.3738, 98.5425, 98.5148
1751.18, 98.1816, 97.9327, 98.1626, 98.283, 98.37, 98.5351, 98.5134
1751.12, 98.1856, 97.9429, 98.1661, 98.2878, 98.3625, 98.5254, 98.5084
1751.06, 98.1907, 97.9514, 98.17, 98.2993, 98.3517, 98.5155, 98.5009
1751, 98.1961, 97.9583, 98.1733, 98.3153, 98.3381, 98.5068, 98.492
1750.94, 98.2009, 97.9639, 98.1749, 98.3325, 98.322, 98.5001, 98.4824
1750.88, 98.2039, 97.9682, 98.1738, 98.3473, 98.3035, 98.4948, 98.4725
1750.82, 98.2045, 97.9714, 98.1697, 98.3564, 98.283, 98.49, 98.4627
1750.76, 98.2024, 97.9731, 98.1634, 98.358, 98.2612, 98.4839, 98.4529
1750.7, 98.1982, 97.9731, 98.1571, 98.3517, 98.2395, 98.4756, 98.4433
1750.64, 98.1925, 97.971, 98.153, 98.3388, 98.2196, 98.4645, 98.434
1750.58, 98.1863, 97.9665, 98.1533, 98.3213, 98.2038, 98.451, 98.4252
1750.52, 98.1801, 97.9599, 98.1592, 98.3016, 98.1938, 98.4365, 98.4174
1750.46, 98.1743, 97.9517, 98.1704, 98.2815, 98.1909, 98.4227, 98.4109
1750.4, 98.1685, 97.9428, 98.1852, 98.2618, 98.1951, 98.4113, 98.406
1750.34, 98.1618, 97.9345, 98.2011, 98.2429, 98.2057, 98.4031, 98.403
1750.28, 98.1532, 97.9278, 98.2152, 98.2242, 98.2211, 98.3986, 98.4018
1750.22, 98.1417, 97.9238, 98.2248, 98.2052, 98.2396, 98.3971, 98.4023
1750.16, 98.1269, 97.9229, 98.2285, 98.1858, 98.2595, 98.3979, 98.4039
1750.1, 98.1091, 97.9253, 98.2258, 98.1661, 98.2792, 98.4001, 98.406
1750.04, 98.0893, 97.9305, 98.2175, 98.1473, 98.2981, 98.4033, 98.4077
1749.98, 98.0692, 97.938, 98.2053, 98.1307, 98.3153, 98.4073, 98.4079
