Wavenumber, 13001_2-22.SPA, 13002_2-22.SPA, 13003_2-22.SPA, 13011_2-22.SPA, 13012_2-22.SPA, 13013_2-22.SPA, 13021_2-22.SPA, 13022_2-22.SPA, 13023_2-22.SPA, 13031_2-22.SPA, 13032_2-22.SPA, 13033_2-22.SPA, 13051_2-22.SPA, 13052_2-22.SPA, 13053_2-22.SPA, 13071_2-22.SPA, 13072_2-22.SPA, 13073_2-22.SPA, 13091_2-22.SPA, 13092_2-22.SPA, 13093_2-22.SPA
1810, 98.5254, 98.7389, 98.5177, 98.5765, 98.4495, 98.0783, 98.6607, 98.4801, 98.3967, 98.4253, 98.4253, 98.7641, 98.9476, 98.4657, 98.2718, 98.5089, 98.5601, 98.8379, 98.6204, 98.5929, 98.6649
1809.94, 98.5288, 98.7308, 98.5121, 98.5678, 98.4375, 98.0703, 98.6469, 98.4939, 98.3807, 98.4415, 98.4415, 98.7646, 98.9677, 98.454, 98.2748, 98.4947, 98.5778, 98.8358, 98.6194, 98.5767, 98.6617
1809.88, 98.5327, 98.7151, 98.5084, 98.5499, 98.4252, 98.0644, 98.6306, 98.5073, 98.3677, 98.4574, 98.4574, 98.762, 98.9791, 98.4454, 98.2784, 98.4897, 98.5958, 98.8287, 98.6112, 98.5702, 98.6656
1809.82, 98.5383, 98.6931, 98.5068, 98.5248, 98.4146, 98.061, 98.6142, 98.5188, 98.3577, 98.4708, 98.4708, 98.7552, 98.9814, 98.4408, 98.282, 98.4935, 98.6118, 98.8171, 98.5949, 98.5741, 98.6757
1809.76, 98.5466, 98.6666, 98.5072, 98.4955, 98.408, 98.0599, 98.5999, 98.5278, 98.3506, 98.4808, 98.4808, 98.7444, 98.976, 98.4419, 98.2856, 98.5049, 98.6242, 98.8018, 98.572, 98.5877, 98.6904
1809.7, 98.5578, 98.6378, 98.5087, 98.4642, 98.4066, 98.0615, 98.589, 98.5344, 98.3471, 98.4876, 98.4876, 98.7305, 98.9658, 98.4497, 98.2891, 98.5216, 98.6327, 98.7839, 98.5459, 98.6096, 98.7073
1809.64, 98.5711, 98.6097, 98.5099, 98.4326, 98.4113, 98.0664, 98.5828, 98.5396, 98.3479, 98.4921, 98.4921, 98.7156, 98.9541, 98.464, 98.2923, 98.5409, 98.6386, 98.7646, 98.5206, 98.637, 98.724
1809.58, 98.585, 98.5859, 98.5097, 98.4017, 98.4221, 98.0753, 98.5817, 98.5439, 98.3541, 98.4958, 98.4958, 98.702, 98.9441, 98.4826, 98.2945, 98.5595, 98.6432, 98.7457, 98.5002, 98.6666, 98.7382
1809.52, 98.5973, 98.5696, 98.5071, 98.3724, 98.4386, 98.0891, 98.5857, 98.5478, 98.3662, 98.5004, 98.5004, 98.6918, 98.938, 98.5016, 98.2952, 98.5746, 98.6476, 98.7289, 98.4875, 98.6949, 98.7483
1809.46, 98.6058, 98.5637, 98.5015, 98.346, 98.4596, 98.1078, 98.5945, 98.5515, 98.3833, 98.5074, 98.5074, 98.6864, 98.9363, 98.5161, 98.2936, 98.5839, 98.6518, 98.7155, 98.4833, 98.7187, 98.7529
1809.4, 98.6084, 98.569, 98.4933, 98.3244, 98.483, 98.1302, 98.6074, 98.555, 98.4033, 98.5184, 98.5184, 98.686, 98.9383, 98.5218, 98.2893, 98.5866, 98.6553, 98.7066, 98.4864, 98.7356, 98.7513
1809.34, 98.604, 98.5844, 98.4832, 98.31, 98.506, 98.1537, 98.623, 98.5582, 98.4223, 98.5342, 98.5342, 98.6901, 98.9424, 98.5168, 98.2827, 98.5833, 98.657, 98.702, 98.4945, 98.745, 98.7427
1809.28, 98.5926, 98.6067, 98.4723, 98.3046, 98.5255, 98.175, 98.6398, 98.5613, 98.4366, 98.5546, 98.5546, 98.6975, 98.9467, 98.5024, 98.275, 98.5762, 98.6567, 98.7006, 98.5046, 98.7475, 98.7268
1809.22, 98.5754, 98.6313, 98.4623, 98.3089, 98.5385, 98.1906, 98.6556, 98.5645, 98.4426, 98.5785, 98.5785, 98.707, 98.9496, 98.4829, 98.2682, 98.5678, 98.6554, 98.7004, 98.514, 98.7447, 98.7042
1809.16, 98.5552, 98.6534, 98.4546, 98.3225, 98.5437, 98.1979, 98.669, 98.5677, 98.4389, 98.6034, 98.6034, 98.7176, 98.9505, 98.4648, 98.2642, 98.5606, 98.6553, 98.6996, 98.5213, 98.7391, 98.6762
1809.1, 98.535, 98.669, 98.4506, 98.3432, 98.5414, 98.1965, 98.6788, 98.5706, 98.4267, 98.6262, 98.6262, 98.7286, 98.9497, 98.4541, 98.2651, 98.5559, 98.6593, 98.696, 98.5259, 98.7329, 98.645
1809.04, 98.518, 98.6759, 98.4514, 98.3685, 98.5338, 98.1877, 98.6852, 98.5722, 98.4094, 98.6434, 98.6434, 98.7395, 98.9487, 98.4551, 98.272, 98.5538, 98.6695, 98.689, 98.5285, 98.7279, 98.6138
1808.98, 98.5061, 98.6737, 98.4573, 98.3956, 98.5242, 98.1746, 98.6885, 98.5718, 98.3921, 98.6524, 98.6524, 98.75, 98.9493, 98.469, 98.2853, 98.5535, 98.6867, 98.6785, 98.5303, 98.7248, 98.5856
1808.92, 98.5, 98.6636, 98.4676, 98.4225, 98.5157, 98.1614, 98.6898, 98.5688, 98.3798, 98.6517, 98.6517, 98.7591, 98.9534, 98.4935, 98.3041, 98.5541, 98.709, 98.6659, 98.5321, 98.7237, 98.5629
1808.86, 98.4983, 98.6476, 98.4806, 98.4478, 98.5102, 98.1518, 98.6899, 98.5638, 98.3762, 98.6415, 98.6415, 98.7658, 98.9619, 98.5238, 98.3266, 98.555, 98.733, 98.6527, 98.5346, 98.7243, 98.5468
1808.8, 98.4984, 98.6279, 98.494, 98.4711, 98.5071, 98.1479, 98.689, 98.5581, 98.3827, 98.6237, 98.6237, 98.769, 98.9746, 98.5544, 98.3507, 98.5568, 98.7544, 98.6406, 98.5379, 98.7263, 98.5369
1808.74, 98.4971, 98.6064, 98.5047, 98.4916, 98.5043, 98.1501, 98.6869, 98.5542, 98.398, 98.601, 98.601, 98.7679, 98.9895, 98.5807, 98.3738, 98.5605, 98.7689, 98.6305, 98.5413, 98.7294, 98.5316
1808.68, 98.4915, 98.5844, 98.5105, 98.5086, 98.4986, 98.1566, 98.6832, 98.5544, 98.4188, 98.5763, 98.5763, 98.7625, 99.0036, 98.5994, 98.3935, 98.5668, 98.7741, 98.6229, 98.5439, 98.7335, 98.5288
1808.62, 98.4801, 98.5628, 98.5099, 98.5206, 98.4874, 98.1643, 98.6774, 98.5603, 98.4407, 98.552, 98.552, 98.7538, 99.0132, 98.6095, 98.4078, 98.576, 98.7695, 98.6171, 98.5448, 98.7381, 98.5265
1808.56, 98.4626, 98.5425, 98.5032, 98.5263, 98.47, 98.1699, 98.6695, 98.572, 98.4595, 98.5293, 98.5293, 98.7434, 99.0153, 98.6113, 98.4153, 98.5867, 98.7565, 98.6122, 98.5433, 98.7425, 98.5237
1808.5, 98.4406, 98.5239, 98.4921, 98.5245, 98.4477, 98.1707, 98.6601, 98.5881, 98.4719, 98.5086, 98.5086, 98.7337, 99.0084, 98.606, 98.4152, 98.5963, 98.7375, 98.6078, 98.5393, 98.7454, 98.5205
1808.44, 98.4166, 98.5076, 98.4795, 98.5153, 98.4241, 98.1652, 98.65, 98.606, 98.476, 98.4892, 98.4892, 98.7265, 98.9934, 98.5946, 98.408, 98.602, 98.7154, 98.6038, 98.5332, 98.7455, 98.5175
1808.38, 98.3933, 98.4941, 98.4684, 98.5, 98.4032, 98.1542, 98.64, 98.6227, 98.4711, 98.4705, 98.4705, 98.7233, 98.9735, 98.5783, 98.3948, 98.6018, 98.6925, 98.6012, 98.526, 98.7417, 98.5154
1808.32, 98.3735, 98.4836, 98.4609, 98.4813, 98.3882, 98.1394, 98.6305, 98.6361, 98.4576, 98.4517, 98.4517, 98.7242, 98.9533, 98.5581, 98.3777, 98.5952, 98.6707, 98.6012, 98.5191, 98.7336, 98.5147
1808.26, 98.359, 98.4763, 98.4575, 98.462, 98.3808, 98.1235, 98.6217, 98.6447, 98.4365, 98.4325, 98.4325, 98.7285, 98.9379, 98.5352, 98.359, 98.5835, 98.6514, 98.6059, 98.5141, 98.7223, 98.5152
1808.2, 98.3505, 98.4724, 98.4574, 98.4448, 98.3803, 98.1089, 98.6132, 98.6488, 98.4093, 98.4131, 98.4131, 98.7347, 98.9308, 98.5113, 98.3414, 98.5695, 98.6356, 98.6163, 98.5125, 98.7096, 98.5163
1808.13, 98.3479, 98.4716, 98.4582, 98.4316, 98.3845, 98.0975, 98.6049, 98.6489, 98.3781, 98.3937, 98.3937, 98.7411, 98.9332, 98.4885, 98.3268, 98.556, 98.6238, 98.633, 98.5158, 98.6979, 98.5179
1808.07, 98.3502, 98.4737, 98.4573, 98.4231, 98.3905, 98.0898, 98.597, 98.6461, 98.3459, 98.3749, 98.3749, 98.7461, 98.9431, 98.4688, 98.3161, 98.5455, 98.6161, 98.655, 98.525, 98.6891, 98.5201
1808.01, 98.3558, 98.478, 98.4529, 98.4187, 98.3959, 98.0853, 98.5897, 98.6406, 98.3161, 98.3575, 98.3575, 98.7485, 98.9567, 98.4541, 98.3095, 98.5387, 98.6116, 98.6801, 98.541, 98.6841, 98.5238
1807.95, 98.3627, 98.4835, 98.4438, 98.4176, 98.3991, 98.0827, 98.5839, 98.6322, 98.2925, 98.3425, 98.3425, 98.7476, 98.969, 98.445, 98.3062, 98.5351, 98.6088, 98.7054, 98.5639, 98.6822, 98.5304
1807.89, 98.3693, 98.4893, 98.4307, 98.419, 98.4001, 98.08, 98.5801, 98.6201, 98.2783, 98.3313, 98.3313, 98.7431, 98.9758, 98.4415, 98.3048, 98.5334, 98.6057, 98.7271, 98.5935, 98.681, 98.541
1807.83, 98.3741, 98.4942, 98.4148, 98.422, 98.3995, 98.0755, 98.5789, 98.6037, 98.275, 98.3254, 98.3254, 98.7353, 98.9751, 98.4428, 98.3047, 98.5323, 98.6004, 98.7423, 98.6282, 98.6777, 98.556
1807.77, 98.3768, 98.498, 98.3979, 98.4263, 98.3984, 98.0676, 98.5804, 98.5832, 98.2823, 98.3263, 98.3263, 98.7249, 98.9674, 98.4479, 98.3054, 98.5312, 98.5918, 98.7486, 98.6655, 98.6696, 98.5747
1807.71, 98.3777, 98.5009, 98.3815, 98.4316, 98.3974, 98.0549, 98.5845, 98.5601, 98.2979, 98.3347, 98.3347, 98.7128, 98.9552, 98.4559, 98.3074, 98.5304, 98.5803, 98.7455, 98.7014, 98.6552, 98.5954
1807.65, 98.3777, 98.5041, 98.3666, 98.4368, 98.3972, 98.0369, 98.591, 98.5368, 98.3178, 98.3506, 98.3506, 98.7007, 98.9423, 98.4668, 98.3117, 98.5309, 98.5676, 98.7337, 98.7314, 98.635, 98.6158
1807.59, 98.3781, 98.5096, 98.3535, 98.4404, 98.3978, 98.0139, 98.5996, 98.5165, 98.3377, 98.3723, 98.3723, 98.6902, 98.9321, 98.4806, 98.3191, 98.5337, 98.5561, 98.7154, 98.7509, 98.611, 98.6337
1807.53, 98.3798, 98.5186, 98.3423, 98.4401, 98.3989, 97.9871, 98.6101, 98.5024, 98.3539, 98.397, 98.397, 98.683, 98.9267, 98.498, 98.3295, 98.5391, 98.548, 98.6936, 98.7566, 98.5866, 98.6478
1807.47, 98.3833, 98.5318, 98.3334, 98.4337, 98.3998, 97.959, 98.6218, 98.4968, 98.364, 98.4214, 98.4214, 98.6806, 98.9262, 98.5196, 98.3417, 98.5466, 98.5444, 98.6714, 98.7473, 98.5654, 98.6575
1807.41, 98.3881, 98.5481, 98.3271, 98.4193, 98.3995, 97.9334, 98.6335, 98.5007, 98.3676, 98.4419, 98.4419, 98.6837, 98.9296, 98.5452, 98.3531, 98.5551, 98.5452, 98.6516, 98.7247, 98.5501, 98.6635
1807.35, 98.3931, 98.565, 98.3237, 98.3961, 98.3965, 97.9142, 98.6436, 98.5137, 98.3658, 98.4557, 98.4557, 98.692, 98.9349, 98.5741, 98.3606, 98.5633, 98.5491, 98.6366, 98.693, 98.5421, 98.6668
1807.29, 98.3974, 98.5793, 98.3229, 98.3648, 98.3893, 97.9052, 98.6502, 98.5337, 98.3602, 98.461, 98.461, 98.7041, 98.9403, 98.6046, 98.361, 98.5704, 98.554, 98.6279, 98.6579, 98.5412, 98.6691
1807.23, 98.4004, 98.5878, 98.3236, 98.3278, 98.3767, 97.9086, 98.6518, 98.5573, 98.3527, 98.4578, 98.4578, 98.7182, 98.9448, 98.6343, 98.352, 98.5764, 98.5585, 98.6266, 98.6254, 98.546, 98.6718
1807.17, 98.4023, 98.5888, 98.3239, 98.2885, 98.3587, 97.9244, 98.6479, 98.5803, 98.3442, 98.4473, 98.4473, 98.7319, 98.9481, 98.6604, 98.3331, 98.5816, 98.5617, 98.6333, 98.5998, 98.5546, 98.676
1807.11, 98.4042, 98.5822, 98.321, 98.251, 98.3364, 97.95, 98.6393, 98.5984, 98.335, 98.4315, 98.4315, 98.7435, 98.9506, 98.6798, 98.3055, 98.587, 98.5636, 98.6483, 98.583, 98.5653, 98.6829
1807.05, 98.4075, 98.5702, 98.3123, 98.219, 98.3126, 97.9804, 98.6277, 98.6075, 98.3248, 98.413, 98.413, 98.7515, 98.9525, 98.6899, 98.2721, 98.593, 98.5651, 98.6715, 98.5739, 98.5774, 98.6926
1806.99, 98.4132, 98.5561, 98.2966, 98.1959, 98.2911, 98.0098, 98.6156, 98.6051, 98.3132, 98.3946, 98.3946, 98.7559, 98.954, 98.6888, 98.2367, 98.5996, 98.5667, 98.7019, 98.5697, 98.5905, 98.7046
1806.93, 98.4215, 98.5432, 98.2742, 98.1834, 98.2758, 98.0332, 98.6048, 98.5904, 98.3006, 98.3786, 98.3786, 98.7572, 98.9544, 98.6763, 98.2034, 98.6057, 98.5686, 98.7374, 98.5666, 98.605, 98.7178
1806.87, 98.4314, 98.5343, 98.2476, 98.1818, 98.2694, 98.047, 98.5964, 98.5652, 98.2876, 98.3667, 98.3667, 98.7565, 98.9528, 98.6531, 98.1759, 98.6098, 98.5704, 98.7749, 98.5615, 98.621, 98.7297
1806.81, 98.4409, 98.5303, 98.221, 98.1899, 98.2727, 98.0507, 98.5901, 98.5334, 98.2761, 98.3602, 98.3602, 98.7545, 98.9481, 98.622, 98.1565, 98.6102, 98.5717, 98.8104, 98.5532, 98.638, 98.7379
1806.75, 98.4478, 98.5307, 98.1994, 98.2053, 98.2846, 98.046, 98.5852, 98.5003, 98.2678, 98.3594, 98.3594, 98.7515, 98.9392, 98.5866, 98.1461, 98.6055, 98.5723, 98.84, 98.5422, 98.6551, 98.7397
1806.69, 98.4499, 98.5342, 98.1872, 98.2251, 98.3022, 98.0366, 98.5805, 98.4718, 98.2646, 98.3637, 98.3637, 98.7471, 98.9257, 98.551, 98.1444, 98.5951, 98.5722, 98.8602, 98.5305, 98.6708, 98.7336
1806.63, 98.4462, 98.5391, 98.1869, 98.2461, 98.3224, 98.0261, 98.576, 98.4524, 98.2672, 98.3721, 98.3721, 98.7404, 98.9076, 98.5193, 98.1495, 98.5791, 98.5721, 98.8691, 98.5202, 98.6837, 98.7197
1806.57, 98.4371, 98.544, 98.1992, 98.2659, 98.3422, 98.0173, 98.5725, 98.445, 98.2753, 98.383, 98.383, 98.7303, 98.8856, 98.4941, 98.1589, 98.5589, 98.5723, 98.8666, 98.5134, 98.6931, 98.6998
1806.51, 98.4239, 98.5488, 98.2222, 98.2831, 98.3601, 98.0111, 98.5715, 98.4491, 98.2874, 98.3945, 98.3945, 98.7166, 98.8611, 98.4765, 98.1701, 98.5362, 98.5725, 98.8544, 98.5106, 98.6989, 98.6772
1806.45, 98.4087, 98.5537, 98.2523, 98.2973, 98.3756, 98.0066, 98.5746, 98.462, 98.3009, 98.4049, 98.4049, 98.6997, 98.8361, 98.4661, 98.1806, 98.513, 98.5715, 98.8352, 98.5113, 98.7022, 98.6556
1806.39, 98.3938, 98.5596, 98.2851, 98.3084, 98.389, 98.0019, 98.5821, 98.4792, 98.313, 98.413, 98.413, 98.6812, 98.8127, 98.4609, 98.1886, 98.4912, 98.5673, 98.8124, 98.5138, 98.704, 98.6385
1806.33, 98.3811, 98.567, 98.3163, 98.3169, 98.4008, 97.9947, 98.5926, 98.4954, 98.3212, 98.4176, 98.4176, 98.6634, 98.7934, 98.4584, 98.1937, 98.472, 98.5584, 98.7886, 98.5159, 98.7054, 98.6277
1806.27, 98.3717, 98.576, 98.3429, 98.3222, 98.4112, 97.9834, 98.6033, 98.5063, 98.3237, 98.4185, 98.4185, 98.6483, 98.7803, 98.4562, 98.1964, 98.4557, 98.5441, 98.7659, 98.5157, 98.7063, 98.6233
1806.21, 98.366, 98.5858, 98.3629, 98.3235, 98.4197, 97.9675, 98.6105, 98.5093, 98.32, 98.4155, 98.4155, 98.6375, 98.7746, 98.4529, 98.198, 98.4418, 98.5254, 98.7454, 98.5115, 98.7057, 98.6237
1806.15, 98.3637, 98.5954, 98.3761, 98.3192, 98.4257, 97.948, 98.6111, 98.5042, 98.3106, 98.4086, 98.4086, 98.6312, 98.7768, 98.4484, 98.2003, 98.429, 98.505, 98.7273, 98.5024, 98.7016, 98.6264
1806.09, 98.3636, 98.6034, 98.3837, 98.3079, 98.4292, 97.9263, 98.6039, 98.4923, 98.2974, 98.3983, 98.3983, 98.6288, 98.7861, 98.4436, 98.2045, 98.4157, 98.4864, 98.7114, 98.4889, 98.6919, 98.6285
1806.03, 98.3642, 98.6086, 98.3876, 98.289, 98.4306, 97.9047, 98.59, 98.4766, 98.2827, 98.3853, 98.3853, 98.6291, 98.8009, 98.4399, 98.2113, 98.4008, 98.4724, 98.6976, 98.4721, 98.675, 98.6278
1805.97, 98.3635, 98.6105, 98.39, 98.2639, 98.431, 97.885, 98.5723, 98.4597, 98.269, 98.3708, 98.3708, 98.6309, 98.8192, 98.4388, 98.2203, 98.3839, 98.4644, 98.6859, 98.4546, 98.6505, 98.623
1805.91, 98.3598, 98.609, 98.3928, 98.2352, 98.4319, 97.869, 98.555, 98.4441, 98.2583, 98.3558, 98.3558, 98.6337, 98.8388, 98.4409, 98.2301, 98.3656, 98.4614, 98.6764, 98.4398, 98.6196, 98.6139
1805.84, 98.3517, 98.6047, 98.3968, 98.2073, 98.4345, 97.8579, 98.5414, 98.4306, 98.2519, 98.3416, 98.3416, 98.6378, 98.8581, 98.4457, 98.2393, 98.347, 98.4605, 98.6694, 98.4312, 98.5852, 98.6015
1805.78, 98.3389, 98.5983, 98.4018, 98.1844, 98.4391, 97.8522, 98.5335, 98.4192, 98.2501, 98.3287, 98.3287, 98.6437, 98.8759, 98.4518, 98.2464, 98.3297, 98.4586, 98.6653, 98.4319, 98.5511, 98.5874
1805.72, 98.3225, 98.591, 98.4061, 98.1698, 98.445, 97.8521, 98.5308, 98.4088, 98.2527, 98.3171, 98.3171, 98.652, 98.8917, 98.4573, 98.2507, 98.3147, 98.4532, 98.6645, 98.4429, 98.521, 98.5736
1805.66, 98.3047, 98.5837, 98.4075, 98.1648, 98.4511, 97.857, 98.5314, 98.3985, 98.2589, 98.3058, 98.3058, 98.6621, 98.905, 98.4609, 98.252, 98.3021, 98.4439, 98.6673, 98.4629, 98.4984, 98.5627
1805.6, 98.289, 98.5769, 98.4035, 98.1682, 98.456, 97.8659, 98.5323, 98.3877, 98.2679, 98.2935, 98.2935, 98.6723, 98.9156, 98.4617, 98.2505, 98.2913, 98.4327, 98.674, 98.4882, 98.4852, 98.5569
1805.54, 98.2787, 98.5707, 98.3925, 98.1768, 98.4593, 97.8775, 98.5314, 98.3766, 98.2787, 98.2787, 98.2787, 98.68, 98.9229, 98.4603, 98.2464, 98.2816, 98.4232, 98.6843, 98.5133, 98.4819, 98.5581
1805.48, 98.2764, 98.5645, 98.3742, 98.1866, 98.4609, 97.8905, 98.5275, 98.3666, 98.2905, 98.2607, 98.2607, 98.6823, 98.9267, 98.4582, 98.2393, 98.2724, 98.4194, 98.6974, 98.5327, 98.4877, 98.5669
1805.42, 98.283, 98.5577, 98.3503, 98.1937, 98.4617, 97.9041, 98.5211, 98.3589, 98.3026, 98.24, 98.24, 98.677, 98.9263, 98.4571, 98.2284, 98.2642, 98.4241, 98.7114, 98.542, 98.5006, 98.5827
1805.36, 98.297, 98.5494, 98.3238, 98.1958, 98.4627, 97.9175, 98.514, 98.355, 98.3143, 98.2184, 98.2184, 98.6634, 98.9218, 98.4585, 98.2127, 98.2584, 98.4379, 98.7239, 98.5398, 98.518, 98.6036
1805.3, 98.3153, 98.5396, 98.2987, 98.1926, 98.4646, 97.9305, 98.5077, 98.3549, 98.325, 98.1989, 98.1989, 98.6429, 98.913, 98.4633, 98.1917, 98.2572, 98.4588, 98.732, 98.5276, 98.5372, 98.6263
1805.24, 98.3335, 98.529, 98.2786, 98.1854, 98.4676, 97.943, 98.5033, 98.3579, 98.3342, 98.1845, 98.1845, 98.6184, 98.9004, 98.4708, 98.1659, 98.2627, 98.4832, 98.7333, 98.5092, 98.5561, 98.6474
1805.18, 98.3475, 98.5191, 98.2664, 98.1765, 98.4712, 97.9542, 98.5004, 98.3618, 98.3418, 98.1777, 98.1777, 98.5938, 98.8847, 98.4799, 98.1374, 98.276, 98.5068, 98.7269, 98.4895, 98.5734, 98.6639
1805.12, 98.3546, 98.5121, 98.2629, 98.1684, 98.4744, 97.9627, 98.4974, 98.3641, 98.348, 98.1795, 98.1795, 98.5732, 98.8665, 98.4889, 98.1092, 98.2969, 98.5259, 98.7136, 98.473, 98.5889, 98.6744
1805.06, 98.3539, 98.51, 98.2675, 98.1626, 98.4763, 97.967, 98.492, 98.3629, 98.3529, 98.1895, 98.1895, 98.5597, 98.847, 98.4963, 98.0853, 98.3234, 98.538, 98.6964, 98.4619, 98.603, 98.6786
1805, 98.3469, 98.514, 98.2781, 98.1593, 98.4759, 97.9652, 98.4819, 98.3574, 98.357, 98.2054, 98.2054, 98.5549, 98.8275, 98.5011, 98.0688, 98.3524, 98.5426, 98.6796, 98.4567, 98.6163, 98.6777
1804.94, 98.3361, 98.5235, 98.292, 98.1578, 98.4726, 97.9562, 98.4661, 98.3483, 98.3602, 98.2242, 98.2242, 98.559, 98.8093, 98.5028, 98.0616, 98.3805, 98.5403, 98.6679, 98.456, 98.6295, 98.6736
1804.88, 98.3243, 98.5364, 98.3062, 98.1567, 98.4659, 97.9406, 98.4447, 98.338, 98.3622, 98.2428, 98.2428, 98.5707, 98.7937, 98.5011, 98.0638, 98.4051, 98.5329, 98.6647, 98.4574, 98.6424, 98.6679
1804.82, 98.3133, 98.5493, 98.3186, 98.1548, 98.4553, 97.9204, 98.4197, 98.3292, 98.362, 98.2587, 98.2587, 98.5877, 98.7816, 98.4957, 98.0733, 98.4248, 98.5222, 98.6718, 98.459, 98.6535, 98.6616
1804.76, 98.3036, 98.5583, 98.3275, 98.1514, 98.4408, 97.8989, 98.3939, 98.325, 98.3588, 98.2706, 98.2706, 98.6068, 98.7733, 98.4865, 98.0873, 98.4397, 98.5104, 98.6882, 98.4599, 98.6607, 98.6551
1804.7, 98.294, 98.5599, 98.3318, 98.147, 98.4224, 97.8799, 98.3704, 98.3269, 98.3516, 98.2782, 98.2782, 98.6243, 98.7687, 98.4728, 98.1024, 98.4509, 98.4993, 98.711, 98.4603, 98.6615, 98.6484
1804.64, 98.2827, 98.5522, 98.3308, 98.1429, 98.4011, 97.8663, 98.3519, 98.3354, 98.3401, 98.2823, 98.2823, 98.637, 98.7668, 98.4549, 98.1162, 98.4602, 98.4906, 98.7359, 98.4609, 98.6538, 98.642
1804.58, 98.2687, 98.5349, 98.3238, 98.141, 98.3783, 97.8597, 98.3402, 98.3494, 98.3248, 98.2846, 98.2846, 98.6424, 98.7668, 98.4336, 98.1276, 98.4693, 98.4856, 98.7586, 98.4625, 98.6369, 98.6369
1804.52, 98.2522, 98.5092, 98.3103, 98.1435, 98.356, 97.8593, 98.336, 98.3671, 98.3066, 98.2864, 98.2864, 98.6399, 98.7679, 98.4112, 98.1368, 98.4792, 98.485, 98.7756, 98.4653, 98.6118, 98.6348
1804.46, 98.2353, 98.4778, 98.2903, 98.1518, 98.3359, 97.8627, 98.3391, 98.3866, 98.2871, 98.2892, 98.2892, 98.6308, 98.7697, 98.3905, 98.1448, 98.4901, 98.4887, 98.785, 98.4688, 98.5813, 98.637
1804.4, 98.2217, 98.4438, 98.2645, 98.1665, 98.3189, 97.867, 98.3485, 98.406, 98.2681, 98.2939, 98.2939, 98.6185, 98.7725, 98.3752, 98.1531, 98.5017, 98.4956, 98.786, 98.472, 98.5495, 98.6443
1804.34, 98.2149, 98.4106, 98.2346, 98.1871, 98.3048, 97.8694, 98.3633, 98.4241, 98.2511, 98.3003, 98.3003, 98.6076, 98.7768, 98.3681, 98.1625, 98.513, 98.5038, 98.7792, 98.4737, 98.5205, 98.6555
1804.28, 98.2173, 98.381, 98.203, 98.2115, 98.2919, 97.8686, 98.382, 98.4399, 98.2372, 98.3079, 98.3079, 98.6026, 98.7829, 98.3707, 98.1731, 98.5232, 98.5108, 98.7658, 98.4733, 98.4976, 98.6678
1804.22, 98.2286, 98.3573, 98.1729, 98.237, 98.2778, 97.8652, 98.4037, 98.4527, 98.2271, 98.3152, 98.3152, 98.6067, 98.7906, 98.3827, 98.1842, 98.5314, 98.5142, 98.7473, 98.4711, 98.4824, 98.6772
1804.16, 98.2458, 98.3416, 98.1473, 98.2604, 98.2609, 97.8613, 98.427, 98.462, 98.2213, 98.3205, 98.3205, 98.6203, 98.7994, 98.4018, 98.1942, 98.5372, 98.5122, 98.7254, 98.4679, 98.4747, 98.6792
1804.1, 98.2638, 98.3347, 98.1285, 98.2784, 98.2407, 97.8599, 98.4505, 98.4671, 98.2197, 98.3221, 98.3221, 98.641, 98.8085, 98.4244, 98.2015, 98.5403, 98.5041, 98.7017, 98.4652, 98.4731, 98.6704
1804.04, 98.2774, 98.337, 98.1176, 98.2888, 98.2187, 97.8634, 98.4724, 98.4682, 98.2221, 98.3187, 98.3187, 98.6643, 98.8172, 98.4463, 98.2043, 98.5412, 98.4903, 98.6777, 98.4645, 98.4752, 98.6494
1803.98, 98.2823, 98.3474, 98.114, 98.2904, 98.1982, 97.8735, 98.491, 98.4663, 98.228, 98.3101, 98.3101, 98.6845, 98.8256, 98.4641, 98.2015, 98.5404, 98.4726, 98.6549, 98.4671, 98.4789, 98.6173
1803.92, 98.2771, 98.3636, 98.116, 98.2835, 98.1833, 97.8894, 98.5047, 98.4633, 98.2362, 98.2975, 98.2975, 98.6967, 98.8343, 98.4751, 98.1927, 98.5387, 98.4538, 98.6345, 98.4735, 98.4829, 98.5773
1803.86, 98.2632, 98.3827, 98.1208, 98.2694, 98.1776, 97.9089, 98.5125, 98.4616, 98.2453, 98.2828, 98.2828, 98.6982, 98.8441, 98.4787, 98.1785, 98.5368, 98.4372, 98.6171, 98.4838, 98.4867, 98.5338
1803.8, 98.2442, 98.4007, 98.1254, 98.2505, 98.1824, 97.9282, 98.5142, 98.4636, 98.2535, 98.269, 98.269, 98.6882, 98.8556, 98.4751, 98.1604, 98.535, 98.4261, 98.6024, 98.4972, 98.4906, 98.4918
1803.74, 98.2242, 98.4145, 98.1275, 98.2294, 98.1966, 97.9432, 98.5102, 98.4703, 98.2589, 98.2595, 98.2595, 98.6686, 98.868, 98.4661, 98.1411, 98.5332, 98.4232, 98.59, 98.5121, 98.4954, 98.4557
1803.68, 98.2062, 98.4217, 98.1253, 98.2086, 98.2165, 97.9501, 98.5017, 98.4811, 98.2599, 98.2569, 98.2569, 98.6418, 98.88, 98.4537, 98.1238, 98.531, 98.4301, 98.5791, 98.5264, 98.5013, 98.4288
1803.61, 98.1912, 98.4216, 98.1186, 98.1902, 98.2367, 97.9468, 98.4902, 98.4937, 98.2555, 98.263, 98.263, 98.611, 98.889, 98.4403, 98.112, 98.5277, 98.4465, 98.5691, 98.5377, 98.5082, 98.4133
1803.55, 98.1779, 98.4149, 98.1081, 98.1758, 98.2523, 97.9327, 98.4772, 98.5043, 98.2457, 98.2779, 98.2779, 98.5786, 98.893, 98.4281, 98.1083, 98.5228, 98.4703, 98.5604, 98.5437, 98.5153, 98.4099
1803.49, 98.1635, 98.4037, 98.0951, 98.1665, 98.2593, 97.9095, 98.4637, 98.5095, 98.2314, 98.3002, 98.3002, 98.5466, 98.8907, 98.4187, 98.1141, 98.5162, 98.4979, 98.5539, 98.5429, 98.5214, 98.4181
1803.43, 98.1452, 98.3908, 98.0815, 98.1624, 98.2565, 97.8805, 98.4507, 98.5066, 98.214, 98.3269, 98.3269, 98.5168, 98.8829, 98.4133, 98.1287, 98.5085, 98.5243, 98.5514, 98.5351, 98.5255, 98.4366
1803.37, 98.1215, 98.379, 98.0689, 98.1629, 98.2449, 97.8495, 98.4389, 98.4949, 98.1957, 98.3535, 98.3535, 98.4911, 98.8716, 98.4124, 98.1496, 98.5006, 98.5447, 98.5548, 98.5216, 98.5266, 98.4624
1803.31, 98.0927, 98.3701, 98.0587, 98.1667, 98.2275, 97.8205, 98.4287, 98.476, 98.1788, 98.3752, 98.3752, 98.4712, 98.8601, 98.4156, 98.1732, 98.4938, 98.5554, 98.5655, 98.5051, 98.5243, 98.4919
1803.25, 98.0612, 98.3655, 98.0518, 98.1715, 98.2079, 97.7963, 98.4209, 98.4524, 98.1653, 98.3877, 98.3877, 98.4587, 98.8513, 98.4218, 98.1951, 98.4892, 98.5552, 98.5839, 98.4893, 98.5189, 98.5206
1803.19, 98.03, 98.3653, 98.0485, 98.1745, 98.1893, 97.7782, 98.4159, 98.4273, 98.1566, 98.3878, 98.3878, 98.4544, 98.8468, 98.4295, 98.2121, 98.4874, 98.5449, 98.6092, 98.4779, 98.5109, 98.5443
1803.13, 98.0024, 98.3687, 98.049, 98.1727, 98.1738, 97.7656, 98.4142, 98.4031, 98.1535, 98.3744, 98.3744, 98.458, 98.8462, 98.4371, 98.2221, 98.4886, 98.528, 98.6396, 98.4734, 98.5013, 98.5594
1803.07, 97.9805, 98.3746, 98.0533, 98.164, 98.1621, 97.7569, 98.4156, 98.3811, 98.1555, 98.3492, 98.3492, 98.4681, 98.8474, 98.4433, 98.2251, 98.4924, 98.509, 98.672, 98.4766, 98.4911, 98.5643
1803.01, 97.9656, 98.3809, 98.0611, 98.1474, 98.1541, 97.7493, 98.4198, 98.3611, 98.1615, 98.3162, 98.3162, 98.483, 98.8476, 98.4472, 98.2223, 98.4981, 98.4926, 98.7031, 98.4862, 98.4811, 98.5595
1802.95, 97.9577, 98.3858, 98.0717, 98.1235, 98.1491, 97.7402, 98.4258, 98.3421, 98.1694, 98.2812, 98.2812, 98.5013, 98.8437, 98.4485, 98.2156, 98.5048, 98.4821, 98.7299, 98.499, 98.4722, 98.5474
1802.89, 97.9565, 98.3871, 98.0842, 98.0945, 98.1465, 97.7277, 98.4324, 98.3232, 98.177, 98.2503, 98.2503, 98.5222, 98.8339, 98.4475, 98.2064, 98.5115, 98.4792, 98.7498, 98.511, 98.4648, 98.5319
1802.83, 97.9615, 98.3834, 98.0971, 98.0638, 98.1461, 97.7111, 98.4387, 98.3039, 98.1827, 98.2287, 98.2287, 98.5459, 98.818, 98.4445, 98.1955, 98.5173, 98.4834, 98.7611, 98.5179, 98.4592, 98.5175
1802.77, 97.9722, 98.3739, 98.1087, 98.0348, 98.1482, 97.6906, 98.4441, 98.2846, 98.1854, 98.2194, 98.2194, 98.5727, 98.7971, 98.4403, 98.1823, 98.5209, 98.4929, 98.7635, 98.5166, 98.4552, 98.5079
1802.71, 97.988, 98.359, 98.1174, 98.0109, 98.1531, 97.6674, 98.4485, 98.2664, 98.1854, 98.2225, 98.2225, 98.6023, 98.7731, 98.4353, 98.166, 98.5212, 98.5051, 98.7574, 98.5056, 98.453, 98.5055
1802.65, 98.0077, 98.3398, 98.122, 97.9942, 98.1611, 97.6431, 98.4524, 98.2503, 98.1837, 98.2355, 98.2355, 98.6328, 98.7481, 98.4297, 98.1457, 98.5172, 98.5176, 98.7442, 98.4855, 98.4523, 98.5108
1802.59, 98.0295, 98.3184, 98.1222, 97.9855, 98.1715, 97.6194, 98.4561, 98.237, 98.182, 98.254, 98.254, 98.6611, 98.7242, 98.4238, 98.1215, 98.5083, 98.5285, 98.7258, 98.4593, 98.4533, 98.5226
1802.53, 98.0512, 98.2974, 98.1185, 97.9848, 98.1832, 97.5978, 98.4597, 98.2265, 98.1816, 98.2734, 98.2734, 98.6829, 98.7033, 98.4179, 98.0948, 98.4951, 98.5368, 98.7044, 98.4308, 98.456, 98.5384
1802.47, 98.0703, 98.279, 98.1122, 97.9909, 98.1942, 97.5795, 98.4627, 98.218, 98.1827, 98.2901, 98.2901, 98.6946, 98.6868, 98.4121, 98.0683, 98.479, 98.5424, 98.6815, 98.4048, 98.4607, 98.5552
1802.41, 98.085, 98.2648, 98.1049, 98.0025, 98.2022, 97.565, 98.4642, 98.2101, 98.1847, 98.3022, 98.3022, 98.6943, 98.6761, 98.4072, 98.0451, 98.4627, 98.5457, 98.6586, 98.3857, 98.4673, 98.5701
1802.35, 98.0943, 98.2557, 98.0978, 98.0178, 98.2054, 97.5545, 98.4628, 98.2021, 98.1858, 98.3097, 98.3097, 98.683, 98.6723, 98.4037, 98.0283, 98.4492, 98.5475, 98.6363, 98.3764, 98.4757, 98.5808
1802.29, 98.098, 98.252, 98.0911, 98.035, 98.2026, 97.5475, 98.4575, 98.1936, 98.1841, 98.3136, 98.3136, 98.6641, 98.676, 98.4023, 98.02, 98.4413, 98.5485, 98.615, 98.3784, 98.4853, 98.5857
1802.23, 98.0965, 98.2535, 98.0841, 98.052, 98.1938, 97.5432, 98.4479, 98.1854, 98.1781, 98.3158, 98.3158, 98.6423, 98.6867, 98.4037, 98.0212, 98.4411, 98.5495, 98.5953, 98.3909, 98.4953, 98.5846
1802.17, 98.0908, 98.2598, 98.0747, 98.0667, 98.1803, 97.5404, 98.4344, 98.1789, 98.1673, 98.3174, 98.3174, 98.6221, 98.7029, 98.4083, 98.0312, 98.4492, 98.5509, 98.578, 98.4113, 98.5049, 98.5777
1802.11, 98.0813, 98.2707, 98.0608, 98.0769, 98.1644, 97.5378, 98.4184, 98.1757, 98.1526, 98.3186, 98.3186, 98.6061, 98.7224, 98.4161, 98.0481, 98.4643, 98.5526, 98.5645, 98.4358, 98.5134, 98.5661
1802.05, 98.0687, 98.2856, 98.0405, 98.0808, 98.1487, 97.5344, 98.4017, 98.1773, 98.1361, 98.319, 98.319, 98.5943, 98.7422, 98.4263, 98.0689, 98.4841, 98.5537, 98.5565, 98.4605, 98.5202, 98.5509
1801.99, 98.0537, 98.3037, 98.0134, 98.0774, 98.1355, 97.5296, 98.3863, 98.1847, 98.12, 98.3174, 98.3174, 98.5846, 98.7597, 98.4375, 98.0903, 98.5049, 98.5527, 98.5554, 98.4818, 98.5257, 98.5334
1801.93, 98.0377, 98.3232, 97.9803, 98.067, 98.1264, 97.5233, 98.3738, 98.1977, 98.1064, 98.3131, 98.3131, 98.5737, 98.7733, 98.4475, 98.1087, 98.5228, 98.5477, 98.5617, 98.4973, 98.5303, 98.5145
1801.87, 98.0224, 98.3418, 97.9438, 98.0508, 98.1216, 97.5158, 98.3646, 98.2158, 98.0962, 98.306, 98.306, 98.5585, 98.7823, 98.4535, 98.1208, 98.5341, 98.5372, 98.5746, 98.5063, 98.5349, 98.4946
1801.81, 98.0098, 98.3566, 97.9076, 98.0312, 98.1201, 97.5076, 98.3582, 98.2375, 98.0898, 98.2967, 98.2967, 98.5373, 98.7871, 98.453, 98.1242, 98.5361, 98.5208, 98.5916, 98.509, 98.5399, 98.4738
1801.75, 98.0015, 98.3648, 97.8757, 98.0105, 98.1202, 97.499, 98.3532, 98.2616, 98.0865, 98.2867, 98.2867, 98.5105, 98.7892, 98.4439, 98.1181, 98.5273, 98.4992, 98.6088, 98.5067, 98.5459, 98.4519
1801.69, 97.9978, 98.3645, 97.8516, 97.9911, 98.1199, 97.4901, 98.3475, 98.2867, 98.0856, 98.2777, 98.2777, 98.4799, 98.7903, 98.4257, 98.1036, 98.5078, 98.4748, 98.6218, 98.5003, 98.5524, 98.4291
1801.63, 97.9974, 98.3548, 97.8377, 97.9743, 98.1181, 97.4806, 98.3394, 98.3118, 98.0864, 98.2711, 98.2711, 98.449, 98.7919, 98.3991, 98.0838, 98.4794, 98.4506, 98.6267, 98.4907, 98.5587, 98.4058
1801.57, 97.9972, 98.3366, 97.8346, 97.9602, 98.1148, 97.4707, 98.3284, 98.3356, 98.0887, 98.2678, 98.2678, 98.4211, 98.7953, 98.3665, 98.0639, 98.4453, 98.43, 98.6209, 98.4782, 98.5638, 98.3837
1801.51, 97.9931, 98.3118, 97.841, 97.9478, 98.1113, 97.4605, 98.3151, 98.3572, 98.0927, 98.268, 98.268, 98.3995, 98.8015, 98.3313, 98.0498, 98.4099, 98.4155, 98.6044, 98.4627, 98.5667, 98.3652
1801.45, 97.9813, 98.2835, 97.8543, 97.9357, 98.1096, 97.4512, 98.3016, 98.3753, 98.0987, 98.2709, 98.2709, 98.3864, 98.8108, 98.297, 98.0468, 98.3777, 98.4084, 98.5791, 98.4447, 98.5663, 98.3539
1801.39, 97.9596, 98.2547, 97.8711, 97.9221, 98.1117, 97.4445, 98.2912, 98.3889, 98.1066, 98.2755, 98.2755, 98.3832, 98.8228, 98.2669, 98.0583, 98.3527, 98.4083, 98.5488, 98.4255, 98.5625, 98.3529
1801.32, 97.9277, 98.2282, 97.8874, 97.9057, 98.1186, 97.4427, 98.2873, 98.3971, 98.1156, 98.2803, 98.2803, 98.39, 98.8365, 98.2433, 98.0845, 98.338, 98.4139, 98.5187, 98.4073, 98.5552, 98.3651
1801.26, 97.8882, 98.2062, 97.9004, 97.8863, 98.1297, 97.4476, 98.2924, 98.3992, 98.1245, 98.284, 98.284, 98.4055, 98.8502, 98.2277, 98.1221, 98.3343, 98.4233, 98.4935, 98.3933, 98.545, 98.3914
1801.2, 97.8456, 98.1897, 97.908, 97.8642, 98.1428, 97.4598, 98.3071, 98.3957, 98.1317, 98.2861, 98.2861, 98.4271, 98.8617, 98.2206, 98.165, 98.3406, 98.4348, 98.4774, 98.3863, 98.5327, 98.4305
1801.14, 97.8052, 98.179, 97.9096, 97.8409, 98.1545, 97.4786, 98.3298, 98.3874, 98.1353, 98.2865, 98.2865, 98.451, 98.8692, 98.2222, 98.2059, 98.3543, 98.447, 98.4729, 98.3887, 98.5192, 98.4787
1801.08, 97.7724, 98.1736, 97.9062, 97.8178, 98.1609, 97.5012, 98.357, 98.3754, 98.1338, 98.2862, 98.2862, 98.4729, 98.8714, 98.2324, 98.2375, 98.3719, 98.4589, 98.4808, 98.4008, 98.5057, 98.5303
1801.02, 97.7515, 98.172, 97.8992, 97.7962, 98.1591, 97.5236, 98.3837, 98.361, 98.1263, 98.2865, 98.2865, 98.4889, 98.8682, 98.2508, 98.2549, 98.3897, 98.4698, 98.5005, 98.4212, 98.493, 98.5785
1800.96, 97.7448, 98.1725, 97.8906, 97.7771, 98.1473, 97.5413, 98.4048, 98.3448, 98.1127, 98.2887, 98.2887, 98.4966, 98.861, 98.2766, 98.2559, 98.4047, 98.4786, 98.5298, 98.4469, 98.4819, 98.6169
1800.9, 97.7527, 98.1728, 97.8814, 97.7604, 98.1256, 97.5502, 98.4165, 98.3267, 98.0937, 98.2933, 98.2933, 98.4953, 98.8517, 98.3081, 98.2419, 98.4153, 98.484, 98.5659, 98.4739, 98.4733, 98.6408
1800.84, 97.7736, 98.1706, 97.8724, 97.7455, 98.0954, 97.5475, 98.4172, 98.3057, 98.0711, 98.2995, 98.2995, 98.4867, 98.8425, 98.3427, 98.2163, 98.421, 98.4848, 98.6054, 98.4986, 98.468, 98.6482
1800.78, 97.8039, 98.1642, 97.8632, 97.7315, 98.0591, 97.5327, 98.4073, 98.2809, 98.0472, 98.305, 98.305, 98.4739, 98.8347, 98.377, 98.1841, 98.4225, 98.4802, 98.6444, 98.5181, 98.4668, 98.6399
1800.72, 97.8389, 98.1524, 97.8532, 97.7174, 98.0191, 97.5075, 98.3896, 98.2517, 98.0247, 98.3065, 98.3065, 98.4608, 98.8286, 98.4075, 98.1502, 98.4213, 98.4707, 98.6793, 98.531, 98.47, 98.6198
1800.66, 97.8726, 98.1355, 97.8417, 97.7026, 97.9777, 97.4754, 98.3674, 98.2185, 98.0061, 98.3006, 98.3006, 98.4508, 98.8232, 98.4307, 98.1187, 98.419, 98.4577, 98.7068, 98.5376, 98.4776, 98.5934
1800.6, 97.8991, 98.1148, 97.829, 97.6872, 97.9367, 97.4412, 98.3445, 98.1829, 97.9933, 98.2853, 98.2853, 98.4459, 98.817, 98.4442, 98.0923, 98.4168, 98.4433, 98.7244, 98.5387, 98.4891, 98.5667
1800.54, 97.9129, 98.0923, 97.8158, 97.6719, 97.8976, 97.4096, 98.3232, 98.1474, 97.987, 98.2604, 98.2604, 98.4469, 98.8089, 98.4469, 98.0719, 98.4155, 98.4302, 98.7312, 98.536, 98.5032, 98.545
1800.48, 97.9105, 98.0702, 97.8037, 97.6577, 97.862, 97.3842, 98.305, 98.1145, 97.9868, 98.2287, 98.2287, 98.4536, 98.7987, 98.4392, 98.0574, 98.4152, 98.4201, 98.7273, 98.5306, 98.5181, 98.5313
1800.42, 97.8904, 98.0499, 97.7939, 97.6456, 97.8314, 97.3667, 98.2897, 98.0863, 97.9911, 98.1946, 98.1946, 98.4649, 98.7875, 98.4224, 98.0481, 98.4156, 98.4141, 98.7146, 98.5236, 98.532, 98.5265
1800.36, 97.8536, 98.0317, 97.7869, 97.6362, 97.8076, 97.3567, 98.2765, 98.0635, 97.9982, 98.1638, 98.1638, 98.4797, 98.7773, 98.3992, 98.0429, 98.4158, 98.4118, 98.6959, 98.5155, 98.5431, 98.5289
1800.3, 97.8038, 98.0144, 97.782, 97.6295, 97.7918, 97.3517, 98.2646, 98.0454, 98.006, 98.1411, 98.1411, 98.497, 98.77, 98.3722, 98.0407, 98.4156, 98.412, 98.6747, 98.5069, 98.5505, 98.5355
1800.24, 97.7463, 97.9962, 97.777, 97.625, 97.7843, 97.3484, 98.2532, 98.0304, 98.0136, 98.1293, 98.1293, 98.5154, 98.7666, 98.3442, 98.041, 98.4146, 98.4135, 98.6545, 98.4982, 98.5538, 98.5428
1800.18, 97.6875, 97.9748, 97.7692, 97.6222, 97.7844, 97.3436, 98.2422, 98.0169, 98.0208, 98.1281, 98.1281, 98.533, 98.767, 98.3179, 98.0436, 98.4133, 98.4151, 98.6379, 98.4898, 98.5537, 98.5482
1800.12, 97.6338, 97.9487, 97.7558, 97.6208, 97.7898, 97.3355, 98.2319, 98.0042, 98.0282, 98.1349, 98.1349, 98.5472, 98.7696, 98.2951, 98.0491, 98.4126, 98.416, 98.6265, 98.4821, 98.5511, 98.5505
1800.06, 97.5907, 97.9177, 97.7351, 97.621, 97.7975, 97.3243, 98.2227, 97.9931, 98.0369, 98.1451, 98.1451, 98.5548, 98.7724, 98.2773, 98.0582, 98.4136, 98.4163, 98.6208, 98.4748, 98.547, 98.5502
1800, 97.5619, 97.8834, 97.7072, 97.6236, 97.8039, 97.3117, 98.2147, 97.9862, 98.0475, 98.1538, 98.1538, 98.5533, 98.7739, 98.2648, 98.0719, 98.4172, 98.4158, 98.62, 98.4672, 98.5423, 98.549
1799.94, 97.5492, 97.8489, 97.6739, 97.6297, 97.8063, 97.3011, 98.2074, 97.9867, 98.0598, 98.157, 98.157, 98.5407, 98.7736, 98.2573, 98.0908, 98.4236, 98.414, 98.6227, 98.4582, 98.5371, 98.5492
1799.88, 97.5518, 97.8183, 97.6385, 97.6402, 97.8026, 97.295, 98.2, 97.9977, 98.0726, 98.1528, 98.1528, 98.5171, 98.7721, 98.2537, 98.1149, 98.4323, 98.4105, 98.627, 98.4468, 98.5315, 98.5524
1799.82, 97.5672, 97.7957, 97.6045, 97.6547, 97.7925, 97.295, 98.1915, 98.0209, 98.0839, 98.1411, 98.1411, 98.4839, 98.7709, 98.2526, 98.1433, 98.4418, 98.4045, 98.6315, 98.4326, 98.5253, 98.5589
1799.76, 97.5908, 97.7841, 97.5751, 97.672, 97.7767, 97.3001, 98.181, 98.0555, 98.0913, 98.1239, 98.1239, 98.4443, 98.7714, 98.2528, 98.1741, 98.4501, 98.3958, 98.6349, 98.4165, 98.5189, 98.5672
1799.7, 97.6177, 97.7849, 97.5525, 97.6892, 97.7567, 97.3075, 98.1682, 98.0983, 98.0929, 98.1043, 98.1043, 98.4016, 98.7744, 98.2534, 98.2048, 98.4553, 98.3849, 98.6367, 98.4005, 98.513, 98.5741
1799.64, 97.6432, 97.7974, 97.537, 97.7029, 97.7347, 97.313, 98.1538, 98.1441, 98.0872, 98.0859, 98.0859, 98.3593, 98.7793, 98.2543, 98.2328, 98.4555, 98.3731, 98.6369, 98.3876, 98.5087, 98.5763
1799.58, 97.6641, 97.8188, 97.528, 97.7092, 97.7127, 97.313, 98.1395, 98.187, 98.0739, 98.0722, 98.0722, 98.32, 98.7843, 98.256, 98.2559, 98.4502, 98.3625, 98.6358, 98.381, 98.5074, 98.5706
1799.52, 97.6792, 97.8446, 97.5238, 97.705, 97.6924, 97.3052, 98.1272, 98.2213, 98.0539, 98.0662, 98.0662, 98.2854, 98.7871, 98.2593, 98.2731, 98.4397, 98.3551, 98.6342, 98.383, 98.5097, 98.5558
1799.46, 97.6892, 97.8697, 97.5226, 97.6888, 97.6748, 97.2901, 98.1192, 98.2432, 98.0288, 98.0697, 98.0697, 98.2568, 98.7857, 98.2644, 98.2845, 98.4255, 98.3521, 98.6325, 98.3942, 98.5158, 98.5331
1799.4, 97.6961, 97.8891, 97.5225, 97.6608, 97.6606, 97.2701, 98.1167, 98.2507, 98.0012, 98.0833, 98.0833, 98.2352, 98.7784, 98.2714, 98.2913, 98.4094, 98.3535, 98.631, 98.4132, 98.5248, 98.506
1799.34, 97.7019, 97.899, 97.5218, 97.6232, 97.6494, 97.2493, 98.1201, 98.2447, 97.9738, 98.106, 98.106, 98.2215, 98.765, 98.2794, 98.295, 98.3937, 98.3583, 98.6297, 98.437, 98.535, 98.4798
1799.28, 97.7078, 97.8973, 97.5195, 97.5797, 97.6405, 97.2313, 98.1278, 98.2276, 97.9489, 98.1348, 98.1348, 98.2162, 98.7459, 98.287, 98.2971, 98.3804, 98.3642, 98.6278, 98.4614, 98.5448, 98.4601
1799.22, 97.7131, 97.8839, 97.5147, 97.5349, 97.6325, 97.2185, 98.1372, 98.2032, 97.9288, 98.1657, 98.1657, 98.2198, 98.722, 98.2928, 98.2981, 98.3709, 98.3694, 98.6244, 98.4822, 98.5525, 98.4514
1799.16, 97.7157, 97.8605, 97.5067, 97.4935, 97.624, 97.2111, 98.1448, 98.1754, 97.9145, 98.1937, 98.1937, 98.2312, 98.6948, 98.2954, 98.2974, 98.3664, 98.3724, 98.6185, 98.4962, 98.5569, 98.4558
1799.09, 97.7125, 97.8299, 97.4954, 97.4596, 97.6138, 97.2073, 98.147, 98.148, 97.9061, 98.214, 98.214, 98.2488, 98.666, 98.2941, 98.2938, 98.367, 98.3732, 98.6093, 98.5015, 98.5574, 98.4727
1799.03, 97.7007, 97.7959, 97.481, 97.4358, 97.6014, 97.2042, 98.1415, 98.1234, 97.9028, 98.2229, 98.2229, 98.2698, 98.6373, 98.2891, 98.2854, 98.3726, 98.3728, 98.5966, 98.4982, 98.554, 98.4983
1798.97, 97.6787, 97.7619, 97.4639, 97.4229, 97.5872, 97.1989, 98.1274, 98.1024, 97.9029, 98.2188, 98.2188, 98.2912, 98.6109, 98.2814, 98.2708, 98.3825, 98.3733, 98.5809, 98.4878, 98.547, 98.527
1798.91, 97.6467, 97.731, 97.4449, 97.4197, 97.5724, 97.1895, 98.106, 98.0846, 97.9045, 98.202, 98.202, 98.3102, 98.5885, 98.2727, 98.2495, 98.3955, 98.3768, 98.5635, 98.4725, 98.5368, 98.5524
1798.85, 97.6065, 97.7054, 97.4246, 97.4235, 97.559, 97.1755, 98.0798, 98.0678, 97.9061, 98.1751, 98.1751, 98.3251, 98.572, 98.2655, 98.2225, 98.4103, 98.3847, 98.546, 98.4553, 98.5242, 98.5689
1798.79, 97.5615, 97.6862, 97.4036, 97.4304, 97.5483, 97.1577, 98.0526, 98.0496, 97.9069, 98.1417, 98.1417, 98.3354, 98.562, 98.2622, 98.192, 98.4254, 98.3973, 98.5301, 98.4388, 98.5104, 98.5729
1798.73, 97.5153, 97.6738, 97.3819, 97.4368, 97.541, 97.1378, 98.0279, 98.0276, 97.9067, 98.1058, 98.1058, 98.3413, 98.5583, 98.2652, 98.1614, 98.4391, 98.4137, 98.5171, 98.425, 98.4972, 98.5633
1798.67, 97.4716, 97.6673, 97.3594, 97.4398, 97.5364, 97.1173, 98.0083, 98.0004, 97.9062, 98.071, 98.071, 98.3443, 98.5597, 98.2756, 98.1342, 98.4499, 98.4322, 98.5077, 98.4154, 98.4861, 98.5418
1798.61, 97.4337, 97.6652, 97.3358, 97.4379, 97.5329, 97.0975, 97.9952, 97.9681, 97.9059, 98.0399, 98.0399, 98.3456, 98.5638, 98.2932, 98.1135, 98.4563, 98.4502, 98.5016, 98.4106, 98.4786, 98.5123
1798.55, 97.4038, 97.6651, 97.3112, 97.4311, 97.5282, 97.0789, 97.9882, 97.9327, 97.9061, 98.0143, 98.0143, 98.3467, 98.5685, 98.3157, 98.1011, 98.4569, 98.4657, 98.4982, 98.4104, 98.4749, 98.4796
1798.49, 97.3837, 97.6641, 97.2862, 97.4208, 97.5201, 97.0616, 97.9861, 97.8972, 97.9066, 97.9946, 97.9946, 98.3484, 98.572, 98.3395, 98.0971, 98.4506, 98.477, 98.4969, 98.4142, 98.474, 98.4493
1798.43, 97.3735, 97.659, 97.2617, 97.4085, 97.5076, 97.045, 97.987, 97.8654, 97.9066, 97.9805, 97.9805, 98.3513, 98.5732, 98.3596, 98.0997, 98.4368, 98.4835, 98.4972, 98.4204, 98.4732, 98.4259
1798.37, 97.3721, 97.6476, 97.2391, 97.3957, 97.4909, 97.0286, 97.9892, 97.8403, 97.9053, 97.9712, 97.9712, 98.3552, 98.5722, 98.3719, 98.1059, 98.4159, 98.4852, 98.4988, 98.4276, 98.4693, 98.4128
1798.31, 97.3768, 97.6287, 97.2196, 97.3827, 97.471, 97.0117, 97.9918, 97.8238, 97.9019, 97.9652, 97.9652, 98.3596, 98.5698, 98.3737, 98.112, 98.3895, 98.4829, 98.5024, 98.4338, 98.4595, 98.4116
1798.25, 97.3831, 97.6028, 97.2042, 97.369, 97.4497, 96.9934, 97.9946, 97.8158, 97.8965, 97.961, 97.961, 98.3636, 98.5673, 98.3649, 98.1147, 98.3606, 98.4778, 98.5083, 98.4374, 98.4426, 98.4219
1798.19, 97.3857, 97.5725, 97.193, 97.3532, 97.4283, 96.9731, 97.9982, 97.8146, 97.8894, 97.9571, 97.9571, 98.366, 98.5657, 98.3483, 98.1115, 98.3336, 98.4707, 98.517, 98.4373, 98.42, 98.4417
1798.13, 97.3798, 97.5416, 97.1855, 97.3336, 97.4073, 96.9501, 98.0037, 97.8171, 97.8816, 97.9523, 97.9523, 98.3658, 98.5661, 98.3286, 98.1016, 98.313, 98.4624, 98.5282, 98.433, 98.3958, 98.4675
1798.07, 97.3622, 97.5144, 97.1808, 97.3089, 97.3862, 96.9244, 98.012, 97.8199, 97.8736, 97.9462, 97.9462, 98.3624, 98.5692, 98.311, 98.0858, 98.303, 98.4532, 98.5408, 98.4248, 98.3759, 98.4954
1798.01, 97.332, 97.4943, 97.1777, 97.2788, 97.3641, 96.897, 98.0233, 97.8201, 97.8657, 97.9392, 97.9392, 98.356, 98.5757, 98.2992, 98.0659, 98.3063, 98.4432, 98.5532, 98.4138, 98.3662, 98.5213
1797.95, 97.2916, 97.4833, 97.1751, 97.244, 97.3401, 96.8697, 98.0372, 97.8162, 97.8577, 97.9323, 97.9323, 98.3475, 98.5863, 98.2945, 98.0447, 98.3228, 98.4325, 98.5633, 98.4017, 98.3707, 98.5421
1797.89, 97.2449, 97.481, 97.1726, 97.2062, 97.3138, 96.8448, 98.0521, 97.8084, 97.8492, 97.9271, 97.9271, 98.3383, 98.6015, 98.2957, 98.0247, 98.3503, 98.4214, 98.5695, 98.3904, 98.3903, 98.5557
1797.83, 97.197, 97.4855, 97.1696, 97.1675, 97.2861, 96.8247, 98.0653, 97.7986, 97.8399, 97.9253, 97.9253, 98.3303, 98.6218, 98.2993, 98.0083, 98.3845, 98.4103, 98.5706, 98.3819, 98.4223, 98.5615
1797.77, 97.1519, 97.4932, 97.1662, 97.1305, 97.2586, 96.8107, 98.0743, 97.7897, 97.8297, 97.9282, 97.9282, 98.3245, 98.6466, 98.3014, 97.9968, 98.4202, 98.3998, 98.5666, 98.3777, 98.4609, 98.5602
1797.71, 97.1122, 97.5008, 97.1624, 97.0969, 97.2333, 96.8022, 98.0764, 97.7852, 97.8189, 97.9369, 97.9369, 98.3211, 98.675, 98.2989, 97.9911, 98.4526, 98.3905, 98.5584, 98.3785, 98.499, 98.5532
1797.65, 97.0785, 97.5054, 97.1582, 97.068, 97.2121, 96.7969, 98.0701, 97.7879, 97.8077, 97.9514, 97.9514, 98.3193, 98.7049, 98.2905, 97.9915, 98.4779, 98.3827, 98.5476, 98.3845, 98.5299, 98.5422
1797.59, 97.0505, 97.5052, 97.1533, 97.044, 97.1961, 96.7912, 98.0549, 97.7991, 97.7961, 97.9714, 97.9714, 98.3174, 98.7342, 98.2773, 97.9976, 98.4942, 98.3764, 98.5361, 98.395, 98.5493, 98.5287
1797.53, 97.0277, 97.4996, 97.1472, 97.0242, 97.1854, 96.7811, 98.0319, 97.8179, 97.7832, 97.9953, 97.9953, 98.3134, 98.7605, 98.2613, 98.009, 98.5012, 98.3712, 98.5258, 98.409, 98.556, 98.5137
1797.47, 97.0103, 97.4886, 97.1392, 97.0069, 97.1791, 96.7636, 98.0032, 97.8413, 97.7679, 98.0207, 98.0207, 98.3061, 98.7821, 98.245, 98.0245, 98.4993, 98.3671, 98.5182, 98.4249, 98.5516, 98.4982
1797.41, 96.9995, 97.4722, 97.1283, 96.9904, 97.1757, 96.7373, 97.9713, 97.8646, 97.7487, 98.0439, 98.0439, 98.2954, 98.798, 98.2302, 98.0426, 98.4895, 98.3644, 98.5145, 98.4409, 98.5401, 98.4828
1797.35, 96.9966, 97.4505, 97.1133, 96.9726, 97.1731, 96.7035, 97.9389, 97.8824, 97.7249, 98.0603, 98.0603, 98.2822, 98.8078, 98.2177, 98.0607, 98.4726, 98.3639, 98.5152, 98.4554, 98.5262, 98.4685
1797.29, 97.002, 97.4235, 97.0933, 96.9526, 97.1695, 96.6653, 97.908, 97.89, 97.6966, 98.0653, 98.0653, 98.2688, 98.8121, 98.2076, 98.0762, 98.4495, 98.3672, 98.5206, 98.4669, 98.5139, 98.4563
1797.23, 97.0142, 97.3916, 97.0671, 96.93, 97.163, 96.6268, 97.88, 97.8846, 97.6652, 98.0552, 98.0552, 98.2576, 98.8114, 98.1995, 98.0858, 98.4213, 98.3758, 98.5306, 98.4742, 98.5055, 98.447
1797.17, 97.0296, 97.356, 97.0341, 96.9055, 97.1525, 96.5922, 97.8556, 97.8658, 97.6331, 98.0284, 98.0284, 98.2509, 98.8067, 98.1935, 98.0872, 98.3893, 98.3908, 98.5448, 98.4769, 98.5015, 98.441
1797.11, 97.0431, 97.3188, 96.9943, 96.8807, 97.1372, 96.5645, 97.8356, 97.8359, 97.6029, 97.9869, 97.9869, 98.2499, 98.7985, 98.1901, 98.0792, 98.3556, 98.4126, 98.5624, 98.4752, 98.5007, 98.438
1797.05, 97.049, 97.2827, 96.9487, 96.8571, 97.1175, 96.545, 97.8201, 97.7989, 97.5765, 97.9358, 97.9358, 98.2548, 98.7871, 98.19, 98.0625, 98.3224, 98.4399, 98.5821, 98.4702, 98.5009, 98.4368
1796.99, 97.0434, 97.2503, 96.899, 96.836, 97.094, 96.5332, 97.8097, 97.7596, 97.5546, 97.8827, 97.8827, 98.2643, 98.7727, 98.1932, 98.0398, 98.2919, 98.4705, 98.6026, 98.4635, 98.5, 98.436
1796.93, 97.0245, 97.2236, 96.8477, 96.8179, 97.0683, 96.5274, 97.8043, 97.7223, 97.5365, 97.8361, 97.8361, 98.2763, 98.7552, 98.1989, 98.0155, 98.2656, 98.5012, 98.622, 98.4573, 98.4965, 98.4341
1796.86, 96.9934, 97.2029, 96.7975, 96.8023, 97.0417, 96.5247, 97.8037, 97.69, 97.5208, 97.8027, 97.8027, 98.2884, 98.7344, 98.205, 97.9948, 98.2444, 98.529, 98.6385, 98.4536, 98.49, 98.4306
1796.8, 96.9531, 97.1869, 96.7508, 96.7882, 97.0151, 96.5224, 97.8063, 97.6638, 97.506, 97.786, 97.786, 98.2982, 98.7106, 98.209, 97.9825, 98.2281, 98.5513, 98.6504, 98.4535, 98.4816, 98.4258
1796.74, 96.9073, 97.1732, 96.7095, 96.7746, 96.9888, 96.5177, 97.8102, 97.6434, 97.491, 97.7853, 97.7853, 98.3039, 98.6844, 98.2085, 97.9819, 98.2168, 98.5668, 98.6567, 98.457, 98.4729, 98.4212
1796.68, 96.8591, 97.1587, 96.6743, 96.7607, 96.9619, 96.5085, 97.8127, 97.6279, 97.4758, 97.7959, 97.7959, 98.3047, 98.6571, 98.2024, 97.9938, 98.21, 98.575, 98.6573, 98.4626, 98.4662, 98.418
1796.62, 96.8099, 97.1408, 96.6449, 96.7467, 96.9329, 96.4936, 97.8112, 97.616, 97.4615, 97.8112, 97.8112, 98.3008, 98.6307, 98.1916, 98.0157, 98.2082, 98.5763, 98.6527, 98.4673, 98.4631, 98.4171
1796.56, 96.7594, 97.118, 96.6201, 96.733, 96.9006, 96.4723, 97.804, 97.6073, 97.4493, 97.8245, 97.8245, 98.293, 98.6082, 98.1784, 98.0428, 98.2116, 98.5716, 98.6442, 98.468, 98.4644, 98.4182
1796.5, 96.7065, 97.0902, 96.5981, 96.7202, 96.8643, 96.4452, 97.7904, 97.6014, 97.4405, 97.8308, 97.8308, 98.2831, 98.5921, 98.166, 98.0689, 98.2204, 98.5617, 98.6333, 98.462, 98.4696, 98.4196
1796.44, 96.6496, 97.0579, 96.577, 96.7087, 96.8251, 96.4132, 97.771, 97.5988, 97.4354, 97.8283, 97.8283, 98.2727, 98.5847, 98.1575, 98.0874, 98.2344, 98.5474, 98.6216, 98.4482, 98.4769, 98.4191
1796.38, 96.5887, 97.0226, 96.5549, 96.6984, 96.7851, 96.3778, 97.7474, 97.5996, 97.4338, 97.8178, 97.8178, 98.2627, 98.5865, 98.155, 98.0937, 98.2519, 98.5296, 98.61, 98.4275, 98.4837, 98.4148
1796.32, 96.5251, 96.9855, 96.5306, 96.6888, 96.7476, 96.3407, 97.7216, 97.6036, 97.4344, 97.8017, 97.8017, 98.2535, 98.5965, 98.1589, 98.0858, 98.2708, 98.5089, 98.599, 98.4027, 98.4874, 98.406
1796.26, 96.4618, 96.9475, 96.5032, 96.6796, 96.7156, 96.3029, 97.6956, 97.61, 97.4356, 97.7834, 97.7834, 98.2442, 98.6116, 98.168, 98.0648, 98.288, 98.4861, 98.5884, 98.378, 98.486, 98.3937
1796.2, 96.4032, 96.9091, 96.4721, 96.6705, 96.6911, 96.2652, 97.6712, 97.6179, 97.436, 97.7653, 97.7653, 98.2332, 98.6278, 98.1802, 98.0352, 98.301, 98.4622, 98.5778, 98.3575, 98.4786, 98.3802
1796.14, 96.3536, 96.8709, 96.4375, 96.6623, 96.6739, 96.2275, 97.6499, 97.626, 97.4345, 97.7493, 97.7493, 98.2186, 98.6406, 98.1932, 98.0028, 98.3078, 98.4382, 98.5666, 98.3443, 98.4657, 98.3684
1796.08, 96.3167, 96.8333, 96.3997, 96.6559, 96.6624, 96.1899, 97.6328, 97.633, 97.4305, 97.7367, 97.7367, 98.199, 98.6468, 98.205, 97.9741, 98.3078, 98.4151, 98.555, 98.3396, 98.449, 98.3604
1796.02, 96.2947, 96.7974, 96.3593, 96.6522, 96.6533, 96.1523, 97.6207, 97.6379, 97.4241, 97.7283, 97.7283, 98.1742, 98.6445, 98.2142, 97.9543, 98.3015, 98.3939, 98.5433, 98.3424, 98.4304, 98.3568
1795.96, 96.2875, 96.7645, 96.3174, 96.6509, 96.6435, 96.1151, 97.614, 97.6393, 97.4155, 97.7253, 97.7253, 98.145, 98.6338, 98.2202, 97.9469, 98.2901, 98.3759, 98.5325, 98.3503, 98.412, 98.3564
1795.9, 96.2929, 96.7362, 96.2746, 96.6506, 96.6307, 96.0796, 97.612, 97.6361, 97.405, 97.7281, 97.7281, 98.1135, 98.6164, 98.2234, 97.9528, 98.2753, 98.3625, 98.5239, 98.3599, 98.3951, 98.3573
1795.84, 96.3067, 96.7141, 96.2319, 96.6482, 96.6145, 96.0468, 97.6135, 97.627, 97.3928, 97.7363, 97.7363, 98.0822, 98.5946, 98.2242, 97.9709, 98.2589, 98.355, 98.5184, 98.3681, 98.3798, 98.3575
1795.78, 96.3231, 96.6991, 96.1895, 96.6397, 96.596, 96.018, 97.616, 97.6108, 97.3788, 97.7478, 97.7478, 98.0535, 98.5709, 98.2239, 97.999, 98.2421, 98.3544, 98.5166, 98.3729, 98.366, 98.3563
1795.72, 96.3361, 96.6915, 96.1471, 96.6215, 96.5775, 95.9935, 97.6168, 97.5868, 97.3628, 97.7589, 97.7589, 98.0291, 98.5473, 98.2238, 98.0342, 98.2263, 98.3608, 98.5188, 98.3733, 98.3529, 98.3548
1795.66, 96.3404, 96.6903, 96.1043, 96.5913, 96.5615, 95.9724, 97.6134, 97.5553, 97.3444, 97.7652, 97.7652, 98.0094, 98.525, 98.2251, 98.0739, 98.2126, 98.3727, 98.5245, 98.3695, 98.3402, 98.3552
1795.6, 96.3322, 96.6939, 96.0604, 96.5489, 96.5496, 95.9534, 97.6044, 97.5173, 97.3235, 97.7624, 97.7624, 97.9941, 98.505, 98.2287, 98.1153, 98.2021, 98.3871, 98.5329, 98.3626, 98.3284, 98.3603
1795.54, 96.31, 96.6995, 96.0155, 96.4967, 96.542, 95.9346, 97.5897, 97.4749, 97.3005, 97.7488, 97.7488, 97.9821, 98.488, 98.2347, 98.1561, 98.196, 98.3997, 98.5431, 98.3541, 98.3187, 98.3722
1795.48, 96.275, 96.7038, 95.9704, 96.4385, 96.5371, 95.9143, 97.5707, 97.4309, 97.2766, 97.7257, 97.7257, 97.9724, 98.4746, 98.2422, 98.1938, 98.1951, 98.4061, 98.5542, 98.3456, 98.313, 98.3907
1795.42, 96.2305, 96.7033, 95.9272, 96.3793, 96.5319, 95.8921, 97.5498, 97.3879, 97.2539, 97.6976, 97.6976, 97.9642, 98.4653, 98.2494, 98.2257, 98.2, 98.4029, 98.5651, 98.3387, 98.3133, 98.414
1795.36, 96.1808, 96.6948, 95.8888, 96.3239, 96.5231, 95.8681, 97.5292, 97.3479, 97.235, 97.671, 97.671, 97.957, 98.4604, 98.254, 98.2496, 98.2106, 98.3889, 98.5748, 98.335, 98.3212, 98.4386
1795.3, 96.1308, 96.6756, 95.858, 96.2757, 96.5074, 95.8436, 97.5103, 97.3126, 97.2225, 97.6519, 97.6519, 97.9507, 98.4595, 98.2538, 98.2638, 98.2263, 98.3656, 98.5816, 98.3353, 98.3369, 98.4609
1795.24, 96.0844, 96.6446, 95.8369, 96.2369, 96.4828, 95.8196, 97.4931, 97.2826, 97.2183, 97.6444, 97.6444, 97.9453, 98.4618, 98.2479, 98.2676, 98.2456, 98.3368, 98.584, 98.3399, 98.3596, 98.4778
1795.18, 96.0442, 96.6018, 95.8261, 96.2076, 96.4487, 95.7967, 97.4767, 97.2583, 97.2225, 97.6487, 97.6487, 97.9405, 98.466, 98.2363, 98.2619, 98.2667, 98.3077, 98.5804, 98.3481, 98.3868, 98.4881
1795.12, 96.0109, 96.5488, 95.8236, 96.1865, 96.4062, 95.7747, 97.4597, 97.2399, 97.2331, 97.6616, 97.6616, 97.9355, 98.4713, 98.2205, 98.2485, 98.2873, 98.2834, 98.5699, 98.3577, 98.4154, 98.4916
1795.06, 95.9837, 96.4884, 95.8258, 96.1713, 96.3577, 95.7524, 97.4412, 97.2274, 97.2457, 97.6773, 97.6773, 97.9295, 98.4773, 98.2026, 98.2301, 98.3052, 98.2674, 98.5525, 98.3655, 98.4422, 98.4895
1795, 95.9606, 96.4243, 95.8278, 96.1587, 96.3068, 95.7284, 97.4209, 97.2207, 97.2548, 97.6899, 97.6899, 97.9215, 98.4848, 98.185, 98.2092, 98.3182, 98.2611, 98.5295, 98.368, 98.464, 98.483
1794.94, 95.9387, 96.3602, 95.825, 96.1459, 96.2571, 95.7014, 97.3993, 97.2195, 97.2546, 97.6954, 97.6954, 97.9107, 98.4946, 98.1693, 98.1883, 98.3249, 98.2638, 98.5033, 98.3623, 98.479, 98.4732
1794.88, 95.9153, 96.2995, 95.814, 96.13, 96.2118, 95.6711, 97.3775, 97.2232, 97.2407, 97.6924, 97.6924, 97.8968, 98.5081, 98.1564, 98.1689, 98.3246, 98.2736, 98.4775, 98.3469, 98.4863, 98.4609
1794.82, 95.8877, 96.2452, 95.7933, 96.1096, 96.1733, 95.6378, 97.3562, 97.2304, 97.2111, 97.6833, 97.6833, 97.8801, 98.5258, 98.1462, 98.1517, 98.3178, 98.2879, 98.4555, 98.3224, 98.4863, 98.4473
1794.76, 95.8547, 96.1992, 95.764, 96.0842, 96.1423, 95.6027, 97.3349, 97.2393, 97.1672, 97.672, 97.672, 97.8615, 98.5471, 98.1387, 98.1372, 98.3063, 98.3048, 98.4405, 98.2917, 98.4805, 98.434
1794.7, 95.8159, 96.1624, 95.7283, 96.0545, 96.1178, 95.5669, 97.3125, 97.2479, 97.1128, 97.663, 97.663, 97.8425, 98.5702, 98.1338, 98.1255, 98.2931, 98.3231, 98.4346, 98.2592, 98.4706, 98.4229
1794.64, 95.7724, 96.1347, 95.6893, 96.0223, 96.0978, 95.5312, 97.2872, 97.2542, 97.0533, 97.6596, 97.6596, 97.8254, 98.5929, 98.1319, 98.1169, 98.2816, 98.3416, 98.4383, 98.2299, 98.4584, 98.416
1794.57, 95.7261, 96.1147, 95.6494, 95.9891, 96.0795, 95.4956, 97.2573, 97.2564, 96.9948, 97.6624, 97.6624, 97.8125, 98.6129, 98.1333, 98.1109, 98.2749, 98.3589, 98.4506, 98.2083, 98.4455, 98.4145
1794.51, 95.6793, 96.1003, 95.6098, 95.9563, 96.0601, 95.4599, 97.2224, 97.2529, 96.9421, 97.6696, 97.6696, 97.8064, 98.6286, 98.1384, 98.107, 98.2755, 98.3728, 98.4689, 98.1972, 98.4327, 98.418
1794.45, 95.634, 96.0883, 95.5705, 95.9239, 96.0375, 95.4235, 97.1836, 97.2428, 96.8983, 97.6774, 97.6774, 97.809, 98.6392, 98.1463, 98.1035, 98.284, 98.3805, 98.4901, 98.1973, 98.4204, 98.4244
1794.39, 95.5914, 96.0758, 95.5307, 95.8912, 96.0109, 95.3863, 97.1437, 97.225, 96.8645, 97.6816, 97.6816, 97.8215, 98.6452, 98.1555, 98.0982, 98.2995, 98.3793, 98.5103, 98.2075, 98.4085, 98.4302
1794.33, 95.5516, 96.0601, 95.4891, 95.8566, 95.9809, 95.349, 97.1061, 97.1996, 96.8404, 97.6788, 97.6788, 97.8432, 98.6472, 98.1636, 98.0885, 98.3197, 98.3674, 98.5263, 98.2248, 98.3969, 98.4321
1794.27, 95.514, 96.0398, 95.4455, 95.8188, 95.9492, 95.3127, 97.0743, 97.1669, 96.8245, 97.6675, 97.6675, 97.8716, 98.6455, 98.168, 98.0722, 98.3413, 98.3454, 98.5354, 98.2457, 98.3855, 98.4279
1794.21, 95.478, 96.0151, 95.4001, 95.7774, 95.9184, 95.2788, 97.0511, 97.1289, 96.8148, 97.6487, 97.6487, 97.9023, 98.6401, 98.1672, 98.0481, 98.3608, 98.3159, 98.5369, 98.2664, 98.3745, 98.4174
1794.15, 95.4433, 95.9876, 95.3544, 95.7328, 95.891, 95.2488, 97.0378, 97.0883, 96.8095, 97.6254, 97.6254, 97.9296, 98.6304, 98.1607, 98.0166, 98.3752, 98.2835, 98.5313, 98.2838, 98.3642, 98.4027
1794.09, 95.4106, 95.9603, 95.3102, 95.6865, 95.8692, 95.2235, 97.0342, 97.0491, 96.8067, 97.602, 97.602, 97.9476, 98.6152, 98.15, 97.9797, 98.3825, 98.2535, 98.5212, 98.2959, 98.3553, 98.387
1794.03, 95.3815, 95.936, 95.2694, 95.6404, 95.854, 95.2031, 97.0385, 97.0157, 96.8052, 97.5827, 97.5827, 97.9517, 98.5939, 98.1373, 97.9405, 98.382, 98.2303, 98.51, 98.302, 98.3484, 98.3737
1793.97, 95.3574, 95.917, 95.2333, 95.5957, 95.8448, 95.187, 97.0482, 96.9918, 96.8038, 97.5705, 97.5705, 97.9393, 98.5666, 98.1254, 97.9026, 98.374, 98.2163, 98.5015, 98.303, 98.344, 98.3648
1793.91, 95.3395, 95.904, 95.2029, 95.5529, 95.8397, 95.1743, 97.06, 96.9797, 96.8018, 97.566, 97.566, 97.9108, 98.5341, 98.1163, 97.869, 98.3604, 98.2115, 98.4989, 98.3008, 98.342, 98.3604
1793.85, 95.3269, 95.896, 95.1784, 95.5116, 95.8351, 95.164, 97.0707, 96.9791, 96.7987, 97.567, 97.567, 97.8697, 98.4987, 98.111, 97.8416, 98.3436, 98.214, 98.5039, 98.298, 98.3418, 98.3591
1793.79, 95.3172, 95.8904, 95.1592, 95.4713, 95.8267, 95.1546, 97.077, 96.9879, 96.7943, 97.5694, 97.5694, 97.8215, 98.4628, 98.1095, 97.8209, 98.3268, 98.2209, 98.5163, 98.2975, 98.3426, 98.3591
1793.73, 95.3063, 95.884, 95.1446, 95.432, 95.8105, 95.1447, 97.0766, 97.0017, 96.7891, 97.5682, 97.5682, 97.7724, 98.4297, 98.1107, 97.8063, 98.3126, 98.2297, 98.5341, 98.3015, 98.3431, 98.3592
1793.67, 95.2899, 95.8738, 95.1331, 95.3948, 95.7835, 95.1328, 97.068, 97.0159, 96.7831, 97.5592, 97.5592, 97.728, 98.4024, 98.1131, 97.7966, 98.3035, 98.239, 98.5541, 98.3109, 98.3425, 98.3596
1793.61, 95.2643, 95.858, 95.1224, 95.3618, 95.7446, 95.1173, 97.0511, 97.0263, 96.7765, 97.5407, 97.5407, 97.692, 98.3834, 98.1157, 97.7902, 98.3003, 98.2488, 98.5726, 98.3253, 98.3403, 98.3619
1793.55, 95.2279, 95.8361, 95.1101, 95.3354, 95.6955, 95.0968, 97.0272, 97.0303, 96.769, 97.5143, 97.5143, 97.6657, 98.3747, 98.1177, 97.786, 98.3026, 98.2602, 98.5867, 98.3425, 98.3369, 98.3681
1793.49, 95.1814, 95.8095, 95.0935, 95.3175, 95.6401, 95.0707, 96.9991, 97.0277, 96.7603, 97.4845, 97.4845, 97.6482, 98.3775, 98.119, 97.7833, 98.3083, 98.274, 98.5947, 98.3596, 98.3337, 98.3794
1793.43, 95.1282, 95.7805, 95.0707, 95.3081, 95.5842, 95.0392, 96.97, 97.0195, 96.7495, 97.4579, 97.4579, 97.637, 98.3912, 98.1194, 97.7817, 98.3145, 98.2904, 98.596, 98.3733, 98.3324, 98.3953
1793.37, 95.0728, 95.7518, 95.0408, 95.3052, 95.5338, 95.0038, 96.9434, 97.0079, 96.7363, 97.4407, 97.4407, 97.6294, 98.4142, 98.1185, 97.7809, 98.3183, 98.3084, 98.5913, 98.381, 98.3351, 98.4133
1793.31, 95.0201, 95.7259, 95.0051, 95.3051, 95.4942, 94.9663, 96.9222, 96.9946, 96.7205, 97.4367, 97.4367, 97.6234, 98.443, 98.1158, 97.7809, 98.3172, 98.3261, 98.5816, 98.3813, 98.3429, 98.4296
1793.25, 94.9743, 95.7043, 94.9665, 95.3033, 95.4685, 94.9293, 96.9078, 96.9801, 96.7027, 97.4462, 97.4462, 97.618, 98.4734, 98.1103, 97.7812, 98.3102, 98.341, 98.5685, 98.3743, 98.3562, 98.4406
1793.19, 94.9379, 95.6871, 94.9295, 95.2959, 95.4572, 94.8947, 96.9001, 96.9637, 96.6839, 97.4658, 97.4658, 97.6133, 98.5008, 98.1014, 97.7815, 98.298, 98.3516, 98.5529, 98.3615, 98.3739, 98.4437
1793.13, 94.9112, 95.6735, 94.8983, 95.2807, 95.4584, 94.8633, 96.8977, 96.9431, 96.6652, 97.4891, 97.4891, 97.6103, 98.5211, 98.0892, 97.7816, 98.2826, 98.3573, 98.536, 98.3454, 98.3936, 98.4385
1793.07, 94.8931, 95.6611, 94.8762, 95.2581, 95.4683, 94.8349, 96.8979, 96.9163, 96.6477, 97.509, 97.509, 97.6098, 98.5321, 98.0741, 97.7814, 98.267, 98.3593, 98.5187, 98.3285, 98.4125, 98.4267
1793.01, 94.8809, 95.647, 94.8643, 95.2304, 95.4824, 94.808, 96.8979, 96.8817, 96.6324, 97.5191, 97.5191, 97.612, 98.5332, 98.0575, 97.7814, 98.2544, 98.3595, 98.502, 98.3135, 98.4279, 98.4115
1792.95, 94.8713, 95.6281, 94.8607, 95.2013, 95.4965, 94.7806, 96.8951, 96.8395, 96.6198, 97.5158, 97.5158, 97.6162, 98.5259, 98.0409, 97.7822, 98.2473, 98.3601, 98.4869, 98.3023, 98.4379, 98.3961
1792.89, 94.8609, 95.6016, 94.8612, 95.1747, 95.5072, 94.7508, 96.8876, 96.7916, 96.6106, 97.4983, 97.4983, 97.6205, 98.5128, 98.0254, 97.7846, 98.2475, 98.3629, 98.4742, 98.296, 98.442, 98.3832
1792.83, 94.8471, 95.5658, 94.8601, 95.1536, 95.5122, 94.7175, 96.8745, 96.7415, 96.6051, 97.4685, 97.4685, 97.6227, 98.4966, 98.0118, 97.7897, 98.2551, 98.3683, 98.4642, 98.295, 98.4404, 98.3744
1792.77, 94.8283, 95.5207, 94.8517, 95.1394, 95.51, 94.6806, 96.8566, 96.6931, 96.6039, 97.4301, 97.4301, 97.6204, 98.4797, 98, 97.7979, 98.2693, 98.3755, 98.4562, 98.2992, 98.4345, 98.3701
1792.71, 94.8045, 95.4682, 94.8318, 95.1318, 95.4998, 94.6411, 96.8354, 96.6502, 96.6071, 97.3873, 97.3873, 97.612, 98.4636, 97.9895, 97.8094, 98.2881, 98.3826, 98.4489, 98.3078, 98.4255, 98.3701
1792.65, 94.7773, 95.412, 94.7985, 95.1288, 95.4813, 94.6009, 96.8135, 96.6151, 96.6146, 97.3442, 97.3442, 97.5971, 98.449, 97.9798, 97.8238, 98.3088, 98.3873, 98.4409, 98.3197, 98.4146, 98.3738
1792.59, 94.7493, 95.3572, 94.7532, 95.1276, 95.4548, 94.5623, 96.7935, 96.5882, 96.6253, 97.3044, 97.3044, 97.5768, 98.4363, 97.9705, 97.8402, 98.3286, 98.3876, 98.431, 98.3337, 98.4024, 98.3809
1792.53, 94.7233, 95.3089, 94.6995, 95.1251, 95.4212, 94.5279, 96.7778, 96.5688, 96.6377, 97.271, 97.271, 97.5536, 98.4256, 97.9622, 97.8572, 98.3453, 98.3822, 98.4188, 98.3483, 98.3889, 98.3913
1792.47, 94.7014, 95.2713, 94.6427, 95.1188, 95.3824, 94.4997, 96.7674, 96.555, 96.6498, 97.246, 97.246, 97.5311, 98.4177, 97.9556, 97.8733, 98.3574, 98.3708, 98.4054, 98.3624, 98.3744, 98.4045
1792.41, 94.6839, 95.2464, 94.5882, 95.1074, 95.341, 94.4791, 96.7621, 96.545, 96.6599, 97.2313, 97.2313, 97.5129, 98.4132, 97.9522, 97.8868, 98.3649, 98.3537, 98.3927, 98.3749, 98.3591, 98.4197
1792.34, 94.6696, 95.2339, 94.5406, 95.0911, 95.3006, 94.467, 96.7603, 96.5377, 96.6669, 97.2271, 97.2271, 97.5021, 98.4124, 97.9532, 97.8961, 98.3685, 98.3322, 98.3827, 98.3854, 98.3437, 98.4359
1792.28, 94.6555, 95.231, 94.503, 95.0714, 95.2645, 94.4634, 96.7591, 96.5329, 96.6708, 97.2328, 97.2328, 97.5004, 98.4152, 97.9595, 97.9003, 98.3699, 98.3079, 98.3772, 98.3938, 98.3293, 98.4516
1792.22, 94.638, 95.2335, 94.4765, 95.0505, 95.2355, 94.4676, 96.7558, 96.5314, 96.6726, 97.2462, 97.2462, 97.5078, 98.4202, 97.9714, 97.8992, 98.3705, 98.283, 98.3766, 98.4007, 98.3167, 98.4655
1792.16, 94.614, 95.237, 94.46, 95.0308, 95.2154, 94.4782, 96.748, 96.5342, 96.6736, 97.264, 97.264, 97.5221, 98.426, 97.9889, 97.8935, 98.3712, 98.26, 98.3799, 98.4069, 98.3068, 98.4764
1792.1, 94.5819, 95.2375, 94.4511, 95.0137, 95.2043, 94.4932, 96.7345, 96.5424, 96.6748, 97.2827, 97.2827, 97.5395, 98.4307, 98.0111, 97.8851, 98.3719, 98.2414, 98.3853, 98.4133, 98.2996, 98.4835
1792.04, 94.5419, 95.2331, 94.4467, 94.9992, 95.2004, 94.5101, 96.7157, 96.5563, 96.6762, 97.2996, 97.2996, 97.5553, 98.4337, 98.0372, 97.877, 98.3717, 98.2296, 98.3901, 98.421, 98.2948, 98.4862
1791.98, 94.4962, 95.2238, 94.4434, 94.9859, 95.2009, 94.5262, 96.6934, 96.5753, 96.6767, 97.3133, 97.3133, 97.565, 98.4353, 98.0654, 97.8724, 98.3695, 98.2263, 98.3925, 98.4304, 98.2917, 98.4841
1791.92, 94.4483, 95.2115, 94.4388, 94.9714, 95.2023, 94.5394, 96.6705, 96.5982, 96.6738, 97.3243, 97.3243, 97.5657, 98.4375, 98.0938, 97.8743, 98.3641, 98.2319, 98.3915, 98.4412, 98.29, 98.4769
1791.86, 94.4021, 95.1988, 94.4321, 94.9537, 95.201, 94.5479, 96.6501, 96.6231, 96.665, 97.3345, 97.3345, 97.5564, 98.4425, 98.1204, 97.8845, 98.3557, 98.245, 98.3879, 98.4523, 98.2893, 98.4647
1791.8, 94.3613, 95.188, 94.4239, 94.932, 95.1945, 94.5511, 96.6352, 96.648, 96.6485, 97.3458, 97.3458, 97.5393, 98.4527, 98.1427, 97.9028, 98.3454, 98.2632, 98.3834, 98.4617, 98.2896, 98.4482
1791.74, 94.3287, 95.1803, 94.4159, 94.9078, 95.1813, 94.5491, 96.6279, 96.6715, 96.624, 97.3599, 97.3599, 97.5181, 98.4692, 98.1587, 97.9267, 98.3355, 98.283, 98.3805, 98.4668, 98.291, 98.4292
1791.68, 94.3063, 95.1751, 94.4106, 94.8845, 95.1617, 94.543, 96.6292, 96.6924, 96.593, 97.3769, 97.3769, 97.4981, 98.4917, 98.1671, 97.9518, 98.3287, 98.3015, 98.3814, 98.4645, 98.2936, 98.4106
1791.62, 94.2954, 95.1708, 94.41, 94.8669, 95.1372, 94.5342, 96.6392, 96.71, 96.5589, 97.3955, 97.3955, 97.484, 98.518, 98.1677, 97.9729, 98.3271, 98.3162, 98.3872, 98.4528, 98.2971, 98.3955
1791.56, 94.2968, 95.1649, 94.4147, 94.8592, 95.1102, 94.5246, 96.657, 96.7242, 96.5254, 97.4138, 97.4138, 97.4794, 98.5453, 98.1611, 97.9848, 98.3316, 98.3267, 98.3975, 98.4308, 98.3017, 98.3871
1791.5, 94.3109, 95.1559, 94.4244, 94.8637, 95.0832, 94.5157, 96.681, 96.7346, 96.4962, 97.4295, 97.4295, 97.4856, 98.5703, 98.1491, 97.9846, 98.3419, 98.3338, 98.4106, 98.3994, 98.3074, 98.3874
1791.44, 94.3371, 95.1437, 94.437, 94.8797, 95.0585, 94.5087, 96.7091, 96.7411, 96.4736, 97.4413, 97.4413, 97.5016, 98.5904, 98.1338, 97.9716, 98.3564, 98.3394, 98.4243, 98.3617, 98.3148, 98.3965
1791.38, 94.3742, 95.1302, 94.4501, 94.9037, 95.0376, 94.5041, 96.7388, 96.7432, 96.458, 97.4492, 97.4492, 97.5246, 98.6041, 98.1171, 97.9481, 98.3726, 98.3456, 98.4363, 98.3223, 98.3248, 98.4125
1791.32, 94.4194, 95.1187, 94.4614, 94.9299, 95.0208, 94.5023, 96.7678, 96.7403, 96.4482, 97.4542, 97.4542, 97.5508, 98.611, 98.1005, 97.9185, 98.3883, 98.3537, 98.4452, 98.2866, 98.3388, 98.4317
1791.26, 94.4684, 95.1126, 94.4694, 94.9529, 95.0081, 94.5029, 96.7941, 96.7319, 96.4423, 97.4579, 97.4579, 97.5767, 98.6119, 98.0844, 97.8879, 98.4014, 98.3642, 98.451, 98.2598, 98.3575, 98.4496
1791.2, 94.5162, 95.1148, 94.4736, 94.9681, 94.9991, 94.5057, 96.8162, 96.7179, 96.4382, 97.4615, 97.4615, 97.599, 98.608, 98.069, 97.8611, 98.4108, 98.3766, 98.4552, 98.2457, 98.3809, 98.4622
1791.14, 94.5573, 95.1259, 94.4743, 94.9734, 94.9936, 94.5105, 96.8336, 96.6988, 96.4344, 97.4658, 97.4658, 97.6157, 98.6007, 98.0544, 97.8412, 98.4155, 98.3897, 98.4602, 98.246, 98.408, 98.4665
1791.08, 94.5868, 95.1441, 94.4725, 94.9694, 94.9919, 94.5171, 96.8464, 96.6761, 96.4304, 97.4708, 97.4708, 97.6259, 98.5913, 98.0411, 97.8291, 98.4151, 98.4024, 98.4688, 98.2601, 98.4363, 98.4612
1791.02, 94.6015, 95.1659, 94.4686, 94.958, 94.9945, 94.5253, 96.8553, 96.6516, 96.426, 97.4755, 97.4755, 97.6297, 98.5806, 98.03, 97.824, 98.4095, 98.4142, 98.4827, 98.2851, 98.4629, 98.4469
1790.96, 94.6008, 95.1864, 94.4631, 94.9421, 95.002, 94.5347, 96.861, 96.628, 96.4217, 97.479, 97.479, 97.6279, 98.5694, 98.0223, 97.8237, 98.3991, 98.4249, 98.5024, 98.3165, 98.4845, 98.4258
1790.9, 94.5866, 95.2017, 94.456, 94.9242, 95.0141, 94.5445, 96.8648, 96.6074, 96.4174, 97.4803, 97.4803, 97.6219, 98.5578, 98.0191, 97.8259, 98.3848, 98.4347, 98.5267, 98.3491, 98.4987, 98.4009
1790.84, 94.5636, 95.2091, 94.4478, 94.9063, 95.0299, 94.5536, 96.8673, 96.5916, 96.4128, 97.4788, 97.4788, 97.6136, 98.5457, 98.0205, 97.8289, 98.3678, 98.4432, 98.5528, 98.3784, 98.504, 98.3756
1790.78, 94.5376, 95.2085, 94.4392, 94.8901, 95.0474, 94.561, 96.8692, 96.5815, 96.4078, 97.4739, 97.4739, 97.6049, 98.5331, 98.0257, 97.8321, 98.3502, 98.4496, 98.577, 98.4012, 98.5002, 98.3532
1790.72, 94.5153, 95.2016, 94.432, 94.877, 95.0641, 94.5661, 96.8711, 96.5771, 96.4025, 97.4656, 97.4656, 97.5974, 98.5198, 98.0328, 97.8355, 98.3336, 98.4524, 98.596, 98.4161, 98.4886, 98.3364
1790.66, 94.5022, 95.1918, 94.4283, 94.8687, 95.0783, 94.5693, 96.8734, 96.5779, 96.3981, 97.454, 97.454, 97.5925, 98.5064, 98.04, 97.8399, 98.3195, 98.4499, 98.6077, 98.424, 98.471, 98.3273
1790.6, 94.5021, 95.1828, 94.4301, 94.8673, 95.089, 94.572, 96.8767, 96.5834, 96.397, 97.4395, 97.4395, 97.5909, 98.4936, 98.0459, 97.846, 98.3083, 98.4409, 98.6113, 98.4272, 98.4498, 98.327
1790.54, 94.5156, 95.1781, 94.4389, 94.8742, 95.0969, 94.5763, 96.8811, 96.5931, 96.4021, 97.423, 97.423, 97.5928, 98.4828, 98.0502, 97.8543, 98.2997, 98.4255, 98.6083, 98.4289, 98.4281, 98.3352
1790.48, 94.5412, 95.18, 94.4549, 94.8899, 95.1039, 94.5849, 96.8866, 96.6071, 96.4167, 97.406, 97.406, 97.5974, 98.4749, 98.0539, 97.8651, 98.293, 98.4051, 98.6009, 98.4324, 98.4085, 98.3508
1790.42, 94.5749, 95.1894, 94.4766, 94.9135, 95.1121, 94.5993, 96.8927, 96.6258, 96.4426, 97.3905, 97.3905, 97.6042, 98.4704, 98.0587, 97.878, 98.2875, 98.3822, 98.592, 98.44, 98.3939, 98.3712
1790.36, 94.6117, 95.2063, 94.5016, 94.9424, 95.1235, 94.6198, 96.8985, 96.6491, 96.4803, 97.3787, 97.3787, 97.6122, 98.4687, 98.0666, 97.8925, 98.2829, 98.3597, 98.5838, 98.4523, 98.3863, 98.393
1790.3, 94.6466, 95.229, 94.527, 94.9733, 95.1384, 94.6451, 96.903, 96.6761, 96.5277, 97.3729, 97.3729, 97.6211, 98.4681, 98.0781, 97.9078, 98.2796, 98.3403, 98.5775, 98.4685, 98.3866, 98.4125
1790.24, 94.6762, 95.2553, 94.5499, 95.003, 95.1558, 94.6728, 96.9049, 96.7047, 96.5811, 97.3745, 97.3745, 97.6306, 98.4663, 98.093, 97.9226, 98.2785, 98.3254, 98.573, 98.4857, 98.3944, 98.4261
1790.18, 94.6986, 95.2823, 94.5688, 95.0292, 95.1736, 94.6997, 96.9035, 96.7321, 96.6358, 97.3842, 97.3842, 97.6405, 98.4609, 98.1094, 97.9355, 98.2802, 98.3156, 98.5688, 98.5003, 98.4079, 98.4312
1790.11, 94.7141, 95.3072, 94.5834, 95.0512, 95.1891, 94.7236, 96.8984, 96.7546, 96.6871, 97.4018, 97.4018, 97.6509, 98.4508, 98.1253, 97.9452, 98.2852, 98.3099, 98.563, 98.5083, 98.4238, 98.4269
1790.05, 94.7243, 95.328, 94.5946, 95.0697, 95.2011, 94.7433, 96.8899, 96.7695, 96.7313, 97.4264, 97.4264, 97.6612, 98.4365, 98.139, 97.9506, 98.2928, 98.3071, 98.5539, 98.5065, 98.4386, 98.4137
1789.99, 94.731, 95.3437, 94.6038, 95.0859, 95.2095, 94.7592, 96.8787, 96.7755, 96.7666, 97.4563, 97.4563, 97.6709, 98.4206, 98.1498, 97.9513, 98.3017, 98.3053, 98.5407, 98.4933, 98.4493, 98.394
1789.93, 94.7357, 95.3552, 94.6131, 95.1016, 95.2165, 94.7723, 96.8662, 96.7738, 96.7929, 97.4896, 97.4896, 97.6791, 98.4074, 98.1581, 97.9478, 98.3104, 98.3032, 98.5236, 98.4689, 98.4542, 98.3711
1789.87, 94.7392, 95.3651, 94.6238, 95.1178, 95.225, 94.7838, 96.8539, 96.7678, 96.8117, 97.5239, 97.5239, 97.6853, 98.401, 98.1654, 97.9414, 98.3172, 98.2995, 98.5041, 98.4357, 98.4532, 98.3489
1789.81, 94.7414, 95.3766, 94.637, 95.1351, 95.2383, 94.7941, 96.8437, 96.7621, 96.8251, 97.5565, 97.5565, 97.6891, 98.4049, 98.1723, 97.9341, 98.3214, 98.2932, 98.4847, 98.3975, 98.4479, 98.3311
1789.75, 94.7421, 95.3933, 94.6529, 95.1535, 95.2591, 94.8028, 96.8374, 96.7614, 96.8351, 97.5844, 97.5844, 97.6909, 98.4202, 98.1792, 97.9279, 98.3226, 98.2841, 98.4678, 98.3595, 98.441, 98.3202
1789.69, 94.7415, 95.4177, 94.6718, 95.1734, 95.2882, 94.8092, 96.8367, 96.769, 96.8434, 97.6043, 97.6043, 97.6915, 98.4458, 98.1849, 97.9243, 98.3212, 98.2724, 98.4558, 98.3269, 98.4351, 98.3169
1789.63, 94.7409, 95.4506, 94.6934, 95.1951, 95.3251, 94.8127, 96.8424, 96.7856, 96.8509, 97.6135, 97.6135, 97.6922, 98.4783, 98.1875, 97.9242, 98.3177, 98.2593, 98.4503, 98.3045, 98.4322, 98.3204
1789.57, 94.7425, 95.4905, 94.7182, 95.2189, 95.3679, 94.8143, 96.8548, 96.8088, 96.8576, 97.6106, 97.6106, 97.6939, 98.5134, 98.1855, 97.9277, 98.3128, 98.2467, 98.4517, 98.2955, 98.4333, 98.3283
1789.51, 94.7493, 95.5348, 94.7462, 95.2452, 95.4146, 94.8164, 96.8729, 96.8341, 96.8631, 97.5958, 97.5958, 97.6978, 98.5468, 98.1787, 97.9343, 98.3071, 98.2377, 98.4592, 98.3012, 98.438, 98.3376
1789.45, 94.7637, 95.5802, 94.778, 95.2741, 95.4632, 94.8226, 96.8947, 96.8563, 96.8668, 97.5711, 97.5711, 97.7043, 98.5755, 98.1687, 97.9434, 98.301, 98.235, 98.4713, 98.3208, 98.4453, 98.3453
1789.39, 94.7872, 95.6234, 94.8139, 95.3046, 95.5121, 94.8364, 96.9183, 96.8706, 96.8681, 97.5405, 97.5405, 97.7133, 98.5978, 98.1588, 97.9542, 98.2953, 98.241, 98.4855, 98.3511, 98.4535, 98.3489
1789.33, 94.8198, 95.6625, 94.8537, 95.3355, 95.5604, 94.86, 96.9417, 96.8745, 96.8671, 97.5087, 97.5087, 97.7246, 98.6137, 98.1528, 97.9658, 98.2905, 98.2562, 98.4995, 98.3875, 98.4609, 98.3476
1789.27, 94.86, 95.6966, 94.8965, 95.3655, 95.607, 94.8935, 96.9644, 96.8684, 96.8641, 97.4805, 97.4805, 97.7378, 98.6241, 98.1538, 97.9771, 98.2873, 98.2792, 98.5109, 98.4244, 98.4661, 98.3416
1789.21, 94.9051, 95.7257, 94.9406, 95.3934, 95.6508, 94.9342, 96.9868, 96.8552, 96.8597, 97.4592, 97.4592, 97.7527, 98.6306, 98.1626, 97.9867, 98.2856, 98.3066, 98.5183, 98.4567, 98.4679, 98.332
1789.15, 94.9525, 95.7504, 94.9839, 95.4188, 95.6906, 94.978, 97.0106, 96.8396, 96.855, 97.4465, 97.4465, 97.7689, 98.6349, 98.1774, 97.9927, 98.2849, 98.3338, 98.5211, 98.4803, 98.4658, 98.3205
1789.09, 94.9996, 95.7715, 95.0238, 95.4418, 95.7252, 95.02, 97.038, 96.8263, 96.851, 97.4421, 97.4421, 97.7864, 98.6384, 98.1942, 97.9936, 98.2843, 98.3562, 98.5195, 98.4926, 98.4597, 98.3086
1789.03, 95.045, 95.7896, 95.0582, 95.4632, 95.7539, 95.0566, 97.0704, 96.8193, 96.8487, 97.4443, 97.4443, 97.8053, 98.6421, 98.2076, 97.9886, 98.2825, 98.3705, 98.5144, 98.4931, 98.4503, 98.2974
1788.97, 95.088, 95.8057, 95.0856, 95.4835, 95.7768, 95.0858, 97.1079, 96.8203, 96.8488, 97.4509, 97.4509, 97.8254, 98.6467, 98.2128, 97.9781, 98.2788, 98.3755, 98.5071, 98.4829, 98.4388, 98.2879
1788.91, 95.1287, 95.821, 95.1061, 95.5032, 95.7952, 95.1074, 97.1485, 96.8293, 96.8518, 97.4601, 97.4601, 97.846, 98.6521, 98.2072, 97.9636, 98.2733, 98.3719, 98.4992, 98.4641, 98.427, 98.2811
1788.85, 95.1673, 95.8369, 95.1211, 95.5225, 95.811, 95.1228, 97.189, 96.8446, 96.8578, 97.471, 97.471, 97.866, 98.6576, 98.1908, 97.948, 98.2671, 98.3625, 98.4917, 98.4396, 98.4165, 98.2778
1788.79, 95.2047, 95.8549, 95.1335, 95.5415, 95.8264, 95.1338, 97.2254, 96.8641, 96.8664, 97.4839, 97.4839, 97.8839, 98.6615, 98.1661, 97.9343, 98.2618, 98.3505, 98.4855, 98.4127, 98.4082, 98.2795
1788.73, 95.2416, 95.8759, 95.1468, 95.5603, 95.8431, 95.1419, 97.254, 96.8855, 96.8768, 97.4995, 97.4995, 97.8976, 98.6614, 98.1375, 97.9251, 98.2594, 98.3393, 98.4811, 98.387, 98.4023, 98.2869
1788.67, 95.2788, 95.8999, 95.1642, 95.5797, 95.8622, 95.1484, 97.2728, 96.9077, 96.8876, 97.5184, 97.5184, 97.9051, 98.6553, 98.11, 97.9217, 98.2607, 98.3309, 98.4784, 98.3659, 98.3979, 98.3006
1788.61, 95.3173, 95.9257, 95.1885, 95.6002, 95.8834, 95.1545, 97.2818, 96.9305, 96.8965, 97.5401, 97.5401, 97.9046, 98.6418, 98.0879, 97.9242, 98.2656, 98.3264, 98.4774, 98.3523, 98.3933, 98.3198
1788.55, 95.3584, 95.9516, 95.2205, 95.6226, 95.9057, 95.1619, 97.2826, 96.9541, 96.9011, 97.5627, 97.5627, 97.8953, 98.621, 98.0738, 97.9315, 98.2729, 98.3254, 98.4777, 98.3484, 98.387, 98.3429
1788.49, 95.4025, 95.9757, 95.2597, 95.647, 95.9272, 95.1731, 97.2779, 96.9793, 96.8992, 97.5829, 97.5829, 97.8777, 98.5948, 98.0688, 97.942, 98.2804, 98.3271, 98.4792, 98.3541, 98.3781, 98.3673
1788.43, 95.4493, 95.9969, 95.3037, 95.6732, 95.9461, 95.1909, 97.2706, 97.0065, 96.8888, 97.597, 97.597, 97.8535, 98.5664, 98.0724, 97.9545, 98.2859, 98.3303, 98.4815, 98.3675, 98.367, 98.3903
1788.37, 95.4975, 96.0156, 95.3492, 95.7004, 95.9605, 95.2183, 97.2631, 97.0355, 96.8698, 97.6017, 97.6017, 97.8259, 98.5397, 98.0831, 97.9681, 98.2874, 98.3341, 98.4849, 98.3842, 98.3552, 98.4095
1788.31, 95.5441, 96.0328, 95.3924, 95.728, 95.9695, 95.2567, 97.2566, 97.066, 96.8436, 97.5956, 97.5956, 97.7986, 98.5177, 98.0986, 97.982, 98.2838, 98.3385, 98.4892, 98.3984, 98.3451, 98.4236
1788.25, 95.5854, 96.0505, 95.4302, 95.7556, 95.9729, 95.3059, 97.2521, 97.0974, 96.8137, 97.5795, 97.5795, 97.7754, 98.5021, 98.1164, 97.9954, 98.2746, 98.3438, 98.4946, 98.4041, 98.3389, 98.4328
1788.19, 95.6176, 96.0701, 95.4603, 95.7839, 95.9718, 95.3638, 97.25, 97.1292, 96.7847, 97.5567, 97.5567, 97.7595, 98.4929, 98.1343, 98.0067, 98.2599, 98.3509, 98.5009, 98.3973, 98.338, 98.4378
1788.13, 95.6378, 96.0924, 95.482, 95.8141, 95.968, 95.4264, 97.2508, 97.1611, 96.7619, 97.532, 97.532, 97.7531, 98.4886, 98.15, 98.0137, 98.2403, 98.3611, 98.5082, 98.3773, 98.3428, 98.4402
1788.07, 95.6451, 96.1171, 95.4961, 95.8476, 95.9642, 95.4894, 97.2556, 97.1934, 96.7499, 97.5108, 97.5108, 97.7569, 98.4873, 98.1617, 98.0137, 98.217, 98.375, 98.516, 98.3469, 98.3523, 98.4412
1788.01, 95.6407, 96.1437, 95.505, 95.8852, 95.963, 95.5487, 97.2653, 97.2258, 96.7518, 97.4974, 97.4974, 97.7702, 98.4876, 98.1681, 98.0044, 98.1919, 98.3929, 98.5239, 98.3125, 98.3652, 98.4418
1787.95, 95.6283, 96.1718, 95.5116, 95.9267, 95.9664, 95.6015, 97.2808, 97.2579, 96.7685, 97.4945, 97.4945, 97.7914, 98.4891, 98.1688, 97.9847, 98.1679, 98.4137, 98.5312, 98.2815, 98.3798, 98.4424
1787.89, 95.6126, 96.2022, 95.5195, 95.9708, 95.9756, 95.6462, 97.3016, 97.2883, 96.7993, 97.5025, 97.5025, 97.8179, 98.4928, 98.1638, 97.9555, 98.1484, 98.4353, 98.5371, 98.2608, 98.3946, 98.4428
1787.82, 95.599, 96.2359, 95.5316, 96.0151, 95.9902, 95.6827, 97.3266, 97.3153, 96.8419, 97.5203, 97.5203, 97.847, 98.4999, 98.1544, 97.9196, 98.137, 98.4548, 98.5412, 98.2542, 98.4088, 98.4429
1787.76, 95.5919, 96.2747, 95.5497, 96.0568, 96.0089, 95.7116, 97.3532, 97.3367, 96.8937, 97.5459, 97.5459, 97.8758, 98.5113, 98.1422, 97.8812, 98.1361, 98.4693, 98.5429, 98.2617, 98.4218, 98.4424
1787.7, 95.594, 96.3188, 95.5738, 96.0938, 96.0297, 95.734, 97.3786, 97.3508, 96.952, 97.5775, 97.5775, 97.9016, 98.5266, 98.1295, 97.8447, 98.1461, 98.4766, 98.5422, 98.2798, 98.4331, 98.441
1787.64, 95.6058, 96.3671, 95.6025, 96.1252, 96.0513, 95.7514, 97.3999, 97.3569, 97.0144, 97.6138, 97.6138, 97.9221, 98.5438, 98.1187, 97.8142, 98.165, 98.4759, 98.5394, 98.3029, 98.4422, 98.4383
1787.58, 95.626, 96.4163, 95.633, 96.1511, 96.0733, 95.7654, 97.4154, 97.3559, 97.0785, 97.6539, 97.6539, 97.9357, 98.5597, 98.1121, 97.7924, 98.1883, 98.4681, 98.5349, 98.3254, 98.4487, 98.4339
1787.52, 95.652, 96.4618, 95.6619, 96.1732, 96.0969, 95.7781, 97.4245, 97.3499, 97.1415, 97.6971, 97.6971, 97.9414, 98.5706, 98.1116, 97.7806, 98.2106, 98.455, 98.5293, 98.3435, 98.4523, 98.4273
1787.46, 95.6807, 96.4989, 95.6867, 96.1932, 96.1237, 95.7914, 97.4284, 97.3424, 97.2004, 97.7419, 97.7419, 97.9394, 98.574, 98.1182, 97.7787, 98.2268, 98.4389, 98.5233, 98.3563, 98.4535, 98.4185
1787.4, 95.7093, 96.5246, 95.7061, 96.2129, 96.1553, 95.8066, 97.4289, 97.337, 97.2517, 97.7856, 97.7856, 97.9306, 98.5689, 98.1323, 97.7858, 98.2337, 98.4216, 98.5174, 98.3659, 98.4533, 98.4079
1787.34, 95.7356, 96.5384, 95.7208, 96.2336, 96.1918, 95.8241, 97.4285, 97.3367, 97.2925, 97.8242, 97.8242, 97.9169, 98.5565, 98.153, 97.8004, 98.2306, 98.4039, 98.5119, 98.376, 98.4531, 98.3968
1787.28, 95.7584, 96.5426, 95.7333, 96.2556, 96.2311, 95.8433, 97.4291, 97.3433, 97.3212, 97.8538, 97.8538, 97.9009, 98.5398, 98.1786, 97.821, 98.2197, 98.3857, 98.5067, 98.3902, 98.4543, 98.3872
1787.22, 95.7777, 96.5418, 95.7473, 96.2785, 96.2693, 95.8625, 97.4319, 97.3567, 97.3384, 97.8714, 97.8714, 97.8854, 98.5226, 98.2066, 97.8456, 98.2051, 98.3662, 98.5015, 98.4105, 98.4576, 98.3811
1787.16, 95.7942, 96.5415, 95.7663, 96.3014, 96.3012, 95.8799, 97.4371, 97.3752, 97.3468, 97.8759, 97.8759, 97.8732, 98.5086, 98.2345, 97.8725, 98.1911, 98.3456, 98.4959, 98.4366, 98.4629, 98.3802
1787.1, 95.8093, 96.5463, 95.7927, 96.3232, 96.3229, 95.8943, 97.444, 97.3962, 97.3503, 97.8694, 97.8694, 97.8664, 98.5005, 98.2595, 97.8996, 98.181, 98.3253, 98.4892, 98.4652, 98.4687, 98.3851
1787.04, 95.8251, 96.5599, 95.8273, 96.3428, 96.3329, 95.9059, 97.4519, 97.4164, 97.353, 97.8563, 97.8563, 97.8661, 98.4991, 98.2795, 97.9253, 98.1768, 98.3082, 98.481, 98.4917, 98.4732, 98.3952
1786.98, 95.8436, 96.5838, 95.8686, 96.3595, 96.3335, 95.9164, 97.4601, 97.4337, 97.3575, 97.8421, 97.8421, 97.8727, 98.5036, 98.2929, 97.9485, 98.1784, 98.298, 98.471, 98.5108, 98.4742, 98.4089
1786.92, 95.867, 96.6183, 95.9134, 96.373, 96.3302, 95.928, 97.4688, 97.4468, 97.364, 97.8323, 97.8323, 97.8853, 98.5118, 98.2987, 97.9687, 98.1844, 98.2982, 98.4596, 98.518, 98.4701, 98.4239
1786.86, 95.8971, 96.6624, 95.9581, 96.3835, 96.3308, 95.9429, 97.4784, 97.4564, 97.3703, 97.8306, 97.8306, 97.9029, 98.5209, 98.2968, 97.9861, 98.1929, 98.3103, 98.4473, 98.5111, 98.4603, 98.4379
1786.8, 95.935, 96.7147, 95.9988, 96.3918, 96.3426, 95.9616, 97.4901, 97.4648, 97.3727, 97.8381, 97.8381, 97.9239, 98.5277, 98.2878, 98.0012, 98.2017, 98.3332, 98.4354, 98.4904, 98.4453, 98.4491
1786.74, 95.9809, 96.7731, 96.0329, 96.3992, 96.3702, 95.983, 97.5046, 97.4748, 97.367, 97.8531, 97.8531, 97.9473, 98.5296, 98.273, 98.0141, 98.209, 98.3633, 98.4251, 98.459, 98.4264, 98.4564
1786.68, 96.0339, 96.8352, 96.0591, 96.4068, 96.4146, 96.0039, 97.5225, 97.4896, 97.351, 97.8722, 97.8722, 97.9728, 98.5252, 98.2547, 98.0246, 98.2137, 98.3952, 98.4175, 98.4218, 98.406, 98.4594
1786.62, 96.0922, 96.8974, 96.0778, 96.4157, 96.4718, 96.0205, 97.5431, 97.5108, 97.325, 97.8915, 97.8915, 98.0006, 98.5143, 98.2357, 98.0313, 98.215, 98.4235, 98.4134, 98.3849, 98.3866, 98.4582
1786.56, 96.1534, 96.9561, 96.0902, 96.4263, 96.5352, 96.0296, 97.5649, 97.5384, 97.292, 97.9076, 97.9076, 98.0315, 98.4984, 98.2192, 98.0326, 98.2129, 98.4442, 98.4129, 98.3538, 98.3712, 98.4531
1786.5, 96.2143, 97.0074, 96.0992, 96.4384, 96.5965, 96.0301, 97.5861, 97.57, 97.2569, 97.9187, 97.9187, 98.0659, 98.4804, 98.2083, 98.0268, 98.2082, 98.4557, 98.4157, 98.3325, 98.3626, 98.4445
1786.44, 96.2718, 97.0485, 96.1077, 96.4512, 96.6488, 96.0238, 97.6046, 97.6016, 97.2254, 97.9244, 97.9244, 98.1032, 98.4642, 98.2052, 98.0129, 98.2022, 98.4592, 98.4209, 98.3228, 98.363, 98.4331
1786.38, 96.3232, 97.0782, 96.1191, 96.4637, 96.6876, 96.0148, 97.6188, 97.6282, 97.2026, 97.9253, 97.9253, 98.1419, 98.454, 98.2103, 97.9913, 98.1973, 98.4571, 98.4274, 98.3237, 98.3738, 98.42
1786.32, 96.3663, 97.0972, 96.1363, 96.4755, 96.7119, 96.0085, 97.6282, 97.6457, 97.1916, 97.9228, 97.9228, 98.179, 98.4532, 98.2222, 97.9637, 98.1957, 98.4528, 98.4342, 98.3322, 98.3947, 98.4071
1786.26, 96.3996, 97.108, 96.1617, 96.4865, 96.7239, 96.0104, 97.6328, 97.6518, 97.1934, 97.9182, 97.9182, 98.2111, 98.4638, 98.2381, 97.9338, 98.1994, 98.4485, 98.4409, 98.3439, 98.4241, 98.3969
1786.2, 96.423, 97.1139, 96.1963, 96.4976, 96.728, 96.0241, 97.6338, 97.6469, 97.2071, 97.9129, 97.9129, 98.2351, 98.4857, 98.2539, 97.9056, 98.2093, 98.4452, 98.4473, 98.3547, 98.4587, 98.392
1786.14, 96.4377, 97.1185, 96.2393, 96.5098, 96.7294, 96.051, 97.633, 97.6342, 97.2309, 97.9081, 97.9081, 98.2496, 98.5164, 98.2657, 97.8838, 98.2249, 98.4422, 98.4539, 98.3614, 98.4944, 98.395
1786.08, 96.4463, 97.1245, 96.2884, 96.5244, 96.7327, 96.0895, 97.6325, 97.6189, 97.262, 97.9055, 97.9055, 98.2549, 98.5521, 98.2711, 97.8721, 98.2439, 98.4381, 98.4615, 98.3626, 98.5268, 98.4072
1786.02, 96.4521, 97.1335, 96.3396, 96.5421, 96.7412, 96.1361, 97.6347, 97.6069, 97.298, 97.9069, 97.9069, 98.2534, 98.5876, 98.2694, 97.8733, 98.2633, 98.4313, 98.471, 98.3588, 98.5523, 98.4288
1785.96, 96.459, 97.1462, 96.3882, 96.563, 96.7568, 96.1861, 97.6417, 97.6034, 97.3366, 97.9145, 97.9145, 98.2487, 98.6186, 98.2617, 97.888, 98.28, 98.4209, 98.4832, 98.3516, 98.5687, 98.4582
1785.9, 96.4702, 97.1623, 96.4299, 96.5864, 96.7795, 96.235, 97.6556, 97.6115, 97.3758, 97.9302, 97.9302, 98.2441, 98.6417, 98.2507, 97.9153, 98.2914, 98.4069, 98.4986, 98.3432, 98.5751, 98.4925
1785.84, 96.4875, 97.1814, 96.4617, 96.6115, 96.8077, 96.2793, 97.6777, 97.632, 97.4138, 97.9552, 97.9552, 98.2415, 98.6555, 98.2397, 97.9525, 98.2967, 98.3904, 98.5172, 98.3355, 98.5718, 98.5279
1785.78, 96.5113, 97.2029, 96.4823, 96.6376, 96.8389, 96.3171, 97.7085, 97.6629, 97.4493, 97.9894, 97.9894, 98.241, 98.6609, 98.2311, 97.9954, 98.2962, 98.3734, 98.5384, 98.33, 98.5601, 98.5606
1785.72, 96.5395, 97.2259, 96.4931, 96.6642, 96.8699, 96.3485, 97.7469, 97.7008, 97.4809, 98.031, 98.031, 98.2407, 98.6602, 98.2263, 98.0395, 98.2918, 98.3581, 98.5609, 98.3271, 98.5414, 98.5873
1785.66, 96.5691, 97.2495, 96.4966, 96.6917, 96.8975, 96.3747, 97.7901, 97.7414, 97.5079, 98.077, 98.077, 98.2377, 98.6564, 98.2253, 98.0803, 98.286, 98.3465, 98.5833, 98.3271, 98.5176, 98.6062
1785.59, 96.5968, 97.2722, 96.4966, 96.7205, 96.9192, 96.3976, 97.8343, 97.7805, 97.5302, 98.1234, 98.1234, 98.2296, 98.6526, 98.2268, 98.1143, 98.2815, 98.3401, 98.6042, 98.3297, 98.491, 98.6167
1785.53, 96.6198, 97.2927, 96.4965, 96.7512, 96.9336, 96.4193, 97.8746, 97.8148, 97.5478, 98.1655, 98.1655, 98.2155, 98.6511, 98.2292, 98.1395, 98.2803, 98.3398, 98.6225, 98.3346, 98.4647, 98.6196
1785.47, 96.6372, 97.3095, 96.4991, 96.784, 96.9411, 96.4409, 97.9069, 97.8421, 97.5615, 98.1988, 98.1988, 98.1963, 98.6531, 98.2307, 98.1555, 98.2838, 98.3455, 98.6379, 98.3413, 98.4425, 98.6168
1785.41, 96.6495, 97.3218, 96.5056, 96.8186, 96.9433, 96.4626, 97.9281, 97.8614, 97.5721, 98.2192, 98.2192, 98.1747, 98.6589, 98.2301, 98.1632, 98.2921, 98.3563, 98.6504, 98.3486, 98.4288, 98.6105
1785.35, 96.6586, 97.3292, 96.5164, 96.8546, 96.9432, 96.4834, 97.9375, 97.8725, 97.5807, 98.2237, 98.2237, 98.1543, 98.668, 98.2264, 98.1647, 98.3044, 98.3707, 98.6604, 98.3552, 98.4273, 98.6026
1785.29, 96.6672, 97.3323, 96.5312, 96.8912, 96.9442, 96.5017, 97.9366, 97.876, 97.5883, 98.2106, 98.2106, 98.138, 98.6795, 98.2191, 98.1622, 98.3191, 98.387, 98.6685, 98.3596, 98.4399, 98.5944
1785.23, 96.6774, 97.3321, 96.5496, 96.928, 96.9492, 96.5161, 97.9287, 97.8731, 97.5959, 98.1798, 98.1798, 98.1279, 98.6926, 98.2078, 98.1579, 98.3343, 98.4037, 98.6744, 98.3606, 98.4656, 98.586
1785.17, 96.6906, 97.3299, 96.5717, 96.9645, 96.9604, 96.5254, 97.9183, 97.8656, 97.6045, 98.1328, 98.1328, 98.1244, 98.7067, 98.1928, 98.153, 98.3476, 98.4198, 98.6775, 98.3581, 98.5005, 98.5768
1785.11, 96.7073, 97.3267, 96.5979, 97.0001, 96.978, 96.5301, 97.9092, 97.8556, 97.6149, 98.0735, 98.0735, 98.127, 98.7211, 98.1747, 98.1481, 98.3575, 98.4351, 98.6762, 98.3533, 98.5382, 98.566
1785.05, 96.7277, 97.3237, 96.6287, 97.0338, 97.0011, 96.5315, 97.9041, 97.8453, 97.6275, 98.0072, 98.0072, 98.1345, 98.7349, 98.1553, 98.1432, 98.3632, 98.4501, 98.6689, 98.3483, 98.571, 98.5529
1784.99, 96.7515, 97.3215, 96.6642, 97.0646, 97.0273, 96.5317, 97.9035, 97.8366, 97.6426, 97.941, 97.941, 98.1458, 98.7472, 98.1371, 98.1377, 98.365, 98.465, 98.6544, 98.3459, 98.5923, 98.5377
1784.93, 96.7791, 97.3206, 96.7038, 97.0909, 97.0533, 96.533, 97.9065, 97.8308, 97.6594, 97.8817, 97.8817, 98.1602, 98.7567, 98.1234, 98.1307, 98.3641, 98.4796, 98.6325, 98.3478, 98.5982, 98.5213
1784.87, 96.8106, 97.3215, 96.7458, 97.1115, 97.0759, 96.5372, 97.9104, 97.8287, 97.677, 97.8359, 97.8359, 98.1769, 98.7618, 98.1173, 98.1216, 98.3622, 98.4929, 98.6043, 98.3545, 98.5886, 98.5053
1784.81, 96.8462, 97.324, 96.7878, 97.1257, 97.0921, 96.5452, 97.9127, 97.8302, 97.6938, 97.8079, 97.8079, 98.1953, 98.7614, 98.1214, 98.1098, 98.361, 98.5031, 98.5723, 98.3648, 98.5669, 98.4915
1784.75, 96.8851, 97.3276, 96.827, 97.1341, 97.1001, 96.5568, 97.911, 97.8353, 97.7083, 97.7994, 97.7994, 98.2143, 98.7549, 98.1366, 98.0955, 98.3615, 98.5083, 98.5397, 98.376, 98.5389, 98.4813
1784.69, 96.9259, 97.3316, 96.8609, 97.138, 97.0995, 96.5715, 97.9042, 97.8437, 97.7187, 97.8093, 97.8093, 98.2324, 98.7425, 98.162, 98.0791, 98.3641, 98.5069, 98.5099, 98.385, 98.5111, 98.4751
1784.63, 96.9658, 97.335, 96.8878, 97.1395, 97.0911, 96.5886, 97.8922, 97.8551, 97.7238, 97.8339, 97.8339, 98.2482, 98.7253, 98.1953, 98.062, 98.3681, 98.4988, 98.4857, 98.3897, 98.4887, 98.4729
1784.57, 97.002, 97.3372, 96.9071, 97.1407, 97.0769, 96.6073, 97.876, 97.8692, 97.7226, 97.8678, 97.8678, 98.2607, 98.7052, 98.2328, 98.0459, 98.3732, 98.4851, 98.4692, 98.3894, 98.4744, 98.4742
1784.51, 97.0323, 97.3381, 96.9193, 97.143, 97.0596, 96.6266, 97.8573, 97.8856, 97.7149, 97.9053, 97.9053, 98.2697, 98.6841, 98.2704, 98.0332, 98.379, 98.468, 98.4612, 98.3853, 98.4683, 98.4784
1784.45, 97.0552, 97.3383, 96.9261, 97.1466, 97.0419, 96.6454, 97.838, 97.9029, 97.7013, 97.9412, 97.9412, 98.2756, 98.6643, 98.3045, 98.0259, 98.3862, 98.4502, 98.4616, 98.3796, 98.468, 98.4856
1784.39, 97.0709, 97.3389, 96.9295, 97.1509, 97.0255, 96.6616, 97.8199, 97.9196, 97.6832, 97.972, 97.972, 98.2792, 98.6472, 98.3325, 98.0257, 98.3955, 98.4337, 98.4698, 98.375, 98.4698, 98.496
1784.33, 97.0804, 97.3408, 96.9313, 97.1543, 97.0111, 96.6726, 97.8046, 97.9334, 97.663, 97.996, 97.996, 98.281, 98.6335, 98.3532, 98.0332, 98.4078, 98.4197, 98.4843, 98.3733, 98.4699, 98.5098
1784.27, 97.0853, 97.3443, 96.9333, 97.1552, 96.998, 96.6756, 97.7936, 97.9423, 97.6436, 98.0136, 98.0136, 98.2809, 98.6232, 98.3664, 98.0479, 98.4229, 98.4084, 98.5034, 98.375, 98.4654, 98.5271
1784.21, 97.087, 97.3484, 96.9366, 97.1526, 96.9846, 96.6681, 97.788, 97.9451, 97.6282, 98.026, 98.026, 98.278, 98.6155, 98.373, 98.0679, 98.4392, 98.3994, 98.5247, 98.3791, 98.455, 98.5464
1784.15, 97.0862, 97.3513, 96.9418, 97.1464, 96.9692, 96.6497, 97.7885, 97.9415, 97.6188, 98.0352, 98.0352, 98.2716, 98.6092, 98.3746, 98.0902, 98.4538, 98.3922, 98.5455, 98.3839, 98.4396, 98.5657
1784.09, 97.083, 97.3508, 96.9492, 97.1373, 96.9508, 96.6217, 97.7952, 97.9324, 97.6168, 98.0424, 98.0424, 98.2613, 98.603, 98.3728, 98.1115, 98.4629, 98.3871, 98.5631, 98.3874, 98.4217, 98.582
1784.03, 97.0775, 97.3452, 96.959, 97.1268, 96.9301, 96.5879, 97.808, 97.9196, 97.6214, 98.0482, 98.0482, 98.2476, 98.5958, 98.3692, 98.1283, 98.4631, 98.3849, 98.575, 98.3882, 98.4051, 98.5923
1783.97, 97.0698, 97.3342, 96.9716, 97.1167, 96.9094, 96.5534, 97.8261, 97.905, 97.6305, 98.0522, 98.0522, 98.2327, 98.5872, 98.3648, 98.1379, 98.4524, 98.3865, 98.5795, 98.3855, 98.394, 98.5948
1783.91, 97.0606, 97.3192, 96.9872, 97.1082, 96.8921, 96.5234, 97.8483, 97.8904, 97.6408, 98.0536, 98.0536, 98.2191, 98.5772, 98.3604, 98.1385, 98.4309, 98.3922, 98.5761, 98.3792, 98.3923, 98.5886
1783.85, 97.0508, 97.3032, 97.0058, 97.1021, 96.8821, 96.5023, 97.873, 97.877, 97.6491, 98.0516, 98.0516, 98.2097, 98.5665, 98.3559, 98.1298, 98.401, 98.4013, 98.5657, 98.3692, 98.4021, 98.5749
1783.79, 97.041, 97.2897, 97.027, 97.0986, 96.8824, 96.4925, 97.8988, 97.8657, 97.6529, 98.0464, 98.0464, 98.2064, 98.556, 98.3512, 98.1128, 98.367, 98.4121, 98.5499, 98.3556, 98.4235, 98.5555
1783.73, 97.0312, 97.2814, 97.0495, 97.0971, 96.8945, 96.4939, 97.9241, 97.8574, 97.6514, 98.0391, 98.0391, 98.2101, 98.5474, 98.3456, 98.0897, 98.3338, 98.4223, 98.5312, 98.3383, 98.454, 98.5332
1783.67, 97.0203, 97.28, 97.0714, 97.0968, 96.9175, 96.5051, 97.9476, 97.8532, 97.6453, 98.0315, 98.0315, 98.2199, 98.5425, 98.3385, 98.0635, 98.306, 98.43, 98.5122, 98.3176, 98.4892, 98.5101
1783.61, 97.0066, 97.2847, 97.0904, 97.0973, 96.9492, 96.5237, 97.9684, 97.8545, 97.6369, 98.0259, 98.0259, 98.2344, 98.5431, 98.3295, 98.0377, 98.2872, 98.4347, 98.4951, 98.2945, 98.5232, 98.4881
1783.55, 96.9883, 97.2937, 97.1043, 97.0981, 96.9859, 96.5469, 97.9855, 97.863, 97.6286, 98.024, 98.024, 98.2513, 98.5509, 98.3184, 98.0151, 98.2789, 98.4374, 98.4818, 98.2709, 98.5503, 98.4681
1783.49, 96.9647, 97.3044, 97.112, 97.0996, 97.024, 96.5728, 97.9984, 97.8795, 97.6226, 98.0265, 98.0265, 98.2689, 98.5671, 98.3054, 97.9978, 98.2812, 98.441, 98.4736, 98.2498, 98.5658, 98.4506
1783.43, 96.9366, 97.3148, 97.1134, 97.1026, 97.0603, 96.6, 98.0065, 97.9039, 97.6203, 98.0327, 98.0327, 98.2857, 98.5921, 98.291, 97.9864, 98.2924, 98.4486, 98.4715, 98.2343, 98.5668, 98.4359
1783.36, 96.907, 97.3238, 97.11, 97.108, 97.0928, 96.6275, 98.0094, 97.9339, 97.6219, 98.0413, 98.0413, 98.3005, 98.6251, 98.2757, 97.9803, 98.3097, 98.4631, 98.4759, 98.2274, 98.5533, 98.4244
1783.3, 96.8802, 97.332, 97.1043, 97.1169, 97.1206, 96.6547, 98.0073, 97.9659, 97.6271, 98.0502, 98.0502, 98.3121, 98.6641, 98.26, 97.9783, 98.3297, 98.4857, 98.4867, 98.231, 98.5273, 98.4165
1783.24, 96.8611, 97.3405, 97.0993, 97.1296, 97.1436, 96.6808, 98.0009, 97.9951, 97.6354, 98.058, 98.058, 98.3196, 98.7058, 98.2445, 97.9789, 98.3485, 98.5155, 98.5029, 98.2452, 98.4927, 98.4126
1783.18, 96.8541, 97.3509, 97.0976, 97.1456, 97.1622, 96.7052, 97.9917, 98.0166, 97.647, 98.0643, 98.0643, 98.3223, 98.7462, 98.2292, 97.9813, 98.3626, 98.5501, 98.5225, 98.2685, 98.4544, 98.4127
1783.12, 96.8621, 97.3643, 97.1007, 97.1637, 97.1775, 96.7278, 97.9818, 98.0271, 97.6627, 98.07, 98.07, 98.32, 98.7809, 98.2142, 97.9855, 98.3691, 98.586, 98.5429, 98.2979, 98.4169, 98.4167
1783.06, 96.8861, 97.3809, 97.1089, 97.182, 97.1903, 96.7491, 97.9741, 98.0253, 97.6839, 98.0766, 98.0766, 98.3135, 98.8061, 98.1995, 97.9924, 98.3665, 98.6194, 98.561, 98.3297, 98.3844, 98.4238
1783, 96.9247, 97.3996, 97.121, 97.1986, 97.2016, 96.7706, 97.9714, 98.0123, 97.7123, 98.0857, 98.0857, 98.305, 98.8194, 98.1847, 98.003, 98.3546, 98.647, 98.5746, 98.36, 98.3593, 98.4333
1782.94, 96.9751, 97.419, 97.1354, 97.2124, 97.2125, 96.794, 97.976, 97.9914, 97.7486, 98.0986, 98.0986, 98.2971, 98.8202, 98.1698, 98.018, 98.3353, 98.666, 98.5821, 98.3856, 98.3432, 98.4445
1782.88, 97.0328, 97.4376, 97.1503, 97.2234, 97.224, 96.8211, 97.9891, 97.9668, 97.7924, 98.1149, 98.1149, 98.2926, 98.8102, 98.1547, 98.0366, 98.3117, 98.6738, 98.5836, 98.4041, 98.3361, 98.4569
1782.82, 97.0931, 97.4543, 97.1644, 97.2326, 97.2371, 96.8527, 98.0105, 97.9428, 97.8418, 98.1332, 98.1332, 98.2932, 98.7929, 98.1397, 98.0572, 98.2876, 98.6683, 98.5805, 98.4141, 98.3369, 98.47
1782.76, 97.1507, 97.4688, 97.1768, 97.2422, 97.2523, 96.8877, 98.0386, 97.9226, 97.8933, 98.1509, 98.1509, 98.2994, 98.7732, 98.1255, 98.077, 98.2668, 98.6478, 98.5752, 98.4155, 98.3443, 98.483
1782.7, 97.2016, 97.4819, 97.1875, 97.2542, 97.27, 96.9239, 98.071, 97.9077, 97.9426, 98.1649, 98.1649, 98.3096, 98.7561, 98.1135, 98.0931, 98.2524, 98.6113, 98.5701, 98.409, 98.3565, 98.4946
1782.64, 97.2423, 97.4952, 97.196, 97.2696, 97.2899, 96.9571, 98.1045, 97.8977, 97.9853, 98.1724, 98.1724, 98.3213, 98.7459, 98.105, 98.1032, 98.2456, 98.5596, 98.5668, 98.396, 98.3721, 98.5032
1782.58, 97.2717, 97.5106, 97.2016, 97.2879, 97.3115, 96.9833, 98.1367, 97.8912, 98.0176, 98.1715, 98.1715, 98.3314, 98.7453, 98.1017, 98.1067, 98.2461, 98.4957, 98.5662, 98.3789, 98.3901, 98.507
1782.52, 97.29, 97.53, 97.203, 97.3068, 97.3339, 96.9989, 98.1652, 97.8861, 98.0371, 98.1616, 98.1616, 98.3371, 98.7545, 98.1048, 98.1036, 98.2522, 98.4249, 98.5679, 98.3599, 98.4103, 98.5046
1782.46, 97.2992, 97.5544, 97.1987, 97.323, 97.3564, 97.0018, 98.1885, 97.8807, 98.0429, 98.1435, 98.1435, 98.3369, 98.7714, 98.1142, 98.0953, 98.2609, 98.3544, 98.5712, 98.3417, 98.4327, 98.4959
1782.4, 97.3022, 97.5839, 97.1873, 97.3328, 97.3781, 96.9924, 98.2054, 97.8747, 98.0358, 98.1192, 98.1192, 98.3305, 98.7921, 98.1291, 98.083, 98.269, 98.2918, 98.5746, 98.3269, 98.4576, 98.482
1782.34, 97.3013, 97.6173, 97.1683, 97.3337, 97.3983, 96.9729, 98.2149, 97.8689, 98.0173, 98.0915, 98.0915, 98.3185, 98.8118, 98.1472, 98.0679, 98.2734, 98.2434, 98.5772, 98.3177, 98.4848, 98.4654
1782.28, 97.2984, 97.6519, 97.1427, 97.3248, 97.4165, 96.9475, 98.216, 97.8651, 97.9895, 98.0638, 98.0638, 98.302, 98.826, 98.1653, 98.0503, 98.2722, 98.2132, 98.5777, 98.3158, 98.5136, 98.4499
1782.22, 97.2935, 97.6844, 97.1127, 97.3069, 97.4322, 96.9205, 98.2082, 97.8658, 97.954, 98.0392, 98.0392, 98.2828, 98.8316, 98.1804, 98.0305, 98.2642, 98.2017, 98.5751, 98.3222, 98.5422, 98.4387
1782.16, 97.2859, 97.7116, 97.0813, 97.2827, 97.4446, 96.8964, 98.1915, 97.8728, 97.9123, 98.0206, 98.0206, 98.2621, 98.8277, 98.1901, 98.0091, 98.2502, 98.2065, 98.5684, 98.3371, 98.5679, 98.4345
1782.1, 97.2747, 97.7308, 97.0522, 97.2554, 97.4529, 96.8783, 98.1674, 97.8866, 97.8649, 98.0094, 98.0094, 98.2416, 98.8154, 98.1934, 97.9872, 98.2316, 98.2233, 98.5563, 98.3591, 98.5879, 98.4384
1782.04, 97.2596, 97.7406, 97.0282, 97.228, 97.4559, 96.8679, 98.1389, 97.9059, 97.8124, 98.0061, 98.0061, 98.2232, 98.798, 98.1912, 97.967, 98.2111, 98.247, 98.538, 98.3859, 98.5994, 98.4499
1781.98, 97.2421, 97.7411, 97.0112, 97.2029, 97.4522, 96.8655, 98.1101, 97.9275, 97.7561, 98.0094, 98.0094, 98.2089, 98.7793, 98.1859, 97.9512, 98.1913, 98.2737, 98.5135, 98.4141, 98.6005, 98.4667
1781.92, 97.2252, 97.7338, 97.0017, 97.1816, 97.441, 96.8703, 98.0853, 97.9476, 97.6981, 98.017, 98.017, 98.2007, 98.7633, 98.1804, 97.9423, 98.1745, 98.3009, 98.4842, 98.4394, 98.591, 98.4858
1781.86, 97.2124, 97.7208, 96.9988, 97.1645, 97.4222, 96.8808, 98.068, 97.9622, 97.6417, 98.0259, 98.0259, 98.2002, 98.7522, 98.1781, 97.942, 98.1622, 98.3283, 98.4528, 98.4577, 98.5722, 98.5041
1781.8, 97.207, 97.7048, 97.0011, 97.1518, 97.397, 96.8953, 98.0592, 97.9688, 97.5912, 98.0332, 98.0332, 98.2078, 98.7463, 98.1811, 97.9509, 98.1546, 98.3561, 98.4232, 98.466, 98.5469, 98.5189
1781.74, 97.2104, 97.688, 97.0072, 97.1429, 97.3684, 96.9123, 98.0581, 97.9666, 97.5505, 98.0367, 98.0367, 98.2225, 98.7436, 98.1901, 97.9678, 98.1509, 98.3847, 98.3997, 98.4623, 98.5193, 98.5286
1781.68, 97.2217, 97.6722, 97.0158, 97.1372, 97.3411, 96.93, 98.0612, 97.9574, 97.5225, 98.0352, 98.0352, 98.242, 98.7409, 98.2042, 97.9906, 98.15, 98.4133, 98.3859, 98.447, 98.4939, 98.5326
1781.62, 97.2379, 97.6586, 97.0263, 97.1337, 97.3205, 96.9469, 98.0646, 97.9445, 97.5081, 98.0287, 98.0287, 98.2629, 98.7345, 98.2209, 98.0166, 98.1507, 98.4394, 98.3836, 98.422, 98.4749, 98.5315
1781.56, 97.255, 97.648, 97.0386, 97.1312, 97.312, 96.9615, 98.0643, 97.9317, 97.5055, 98.0184, 98.0184, 98.282, 98.722, 98.2373, 98.043, 98.1527, 98.4596, 98.3926, 98.3904, 98.4651, 98.5263
1781.5, 97.2691, 97.641, 97.0528, 97.1282, 97.3192, 96.9721, 98.0583, 97.9223, 97.511, 98.0058, 98.0058, 98.2968, 98.7028, 98.2504, 98.0674, 98.1567, 98.4703, 98.4105, 98.3562, 98.4657, 98.5182
1781.44, 97.2775, 97.6376, 97.0688, 97.1239, 97.343, 96.9776, 98.0469, 97.9178, 97.5199, 97.9925, 97.9925, 98.3059, 98.6789, 98.258, 98.0879, 98.1641, 98.4688, 98.4334, 98.3229, 98.4758, 98.5087
1781.38, 97.2794, 97.6372, 97.0862, 97.1179, 97.3812, 96.9773, 98.0322, 97.9181, 97.5279, 97.98, 97.98, 98.3098, 98.6542, 98.2592, 98.1029, 98.1767, 98.4552, 98.4566, 98.2937, 98.4925, 98.4986
1781.32, 97.2753, 97.6391, 97.1041, 97.1112, 97.4282, 96.9715, 98.0174, 97.9216, 97.5328, 97.9695, 97.9695, 98.31, 98.6336, 98.2549, 98.1112, 98.1958, 98.432, 98.4762, 98.2711, 98.5118, 98.4886
1781.26, 97.2663, 97.6419, 97.1214, 97.1059, 97.4767, 96.9616, 98.0057, 97.9261, 97.5346, 97.9619, 97.9619, 98.3087, 98.6211, 98.2469, 98.1118, 98.2218, 98.4042, 98.4892, 98.2568, 98.5294, 98.4787
1781.2, 97.2536, 97.6446, 97.1371, 97.1042, 97.5192, 96.9495, 97.999, 97.9298, 97.5362, 97.9584, 97.9584, 98.3081, 98.6191, 98.2383, 98.1044, 98.2539, 98.3781, 98.4945, 98.2519, 98.5414, 98.4687
1781.14, 97.2377, 97.6465, 97.1505, 97.1083, 97.5498, 96.9375, 97.9981, 97.9317, 97.5417, 97.9597, 97.9597, 98.3094, 98.6272, 98.2321, 98.0896, 98.2902, 98.3597, 98.4927, 98.2566, 98.5457, 98.4581
1781.07, 97.2186, 97.648, 97.1614, 97.1193, 97.5651, 96.9277, 98.0022, 97.9321, 97.5553, 97.9666, 97.9666, 98.3132, 98.6429, 98.2311, 98.0689, 98.328, 98.3535, 98.4857, 98.27, 98.5416, 98.4468
1781.01, 97.1967, 97.6503, 97.1701, 97.1366, 97.5652, 96.921, 98.0102, 97.9318, 97.5799, 97.9789, 97.9789, 98.3188, 98.662, 98.237, 98.045, 98.3645, 98.361, 98.4762, 98.29, 98.5304, 98.4346
1780.95, 97.1731, 97.655, 97.1772, 97.1588, 97.5527, 96.9174, 98.0206, 97.9317, 97.6154, 97.9956, 97.9956, 98.3255, 98.6805, 98.2503, 98.021, 98.3971, 98.381, 98.467, 98.3129, 98.5146, 98.4222
1780.89, 97.1498, 97.6636, 97.1835, 97.1837, 97.5322, 96.9159, 98.0324, 97.9323, 97.6592, 98.0147, 98.0147, 98.3323, 98.6952, 98.2701, 98.0002, 98.4241, 98.41, 98.4607, 98.3345, 98.4967, 98.4104
1780.83, 97.1293, 97.6767, 97.1896, 97.2094, 97.5083, 96.9146, 98.0446, 97.9333, 97.7065, 98.0333, 98.0333, 98.3389, 98.7053, 98.2947, 97.9855, 98.444, 98.4434, 98.4591, 98.3507, 98.4794, 98.4006
1780.77, 97.114, 97.693, 97.1956, 97.2349, 97.485, 96.9118, 98.0563, 97.9341, 97.7511, 98.0488, 98.0488, 98.3455, 98.7116, 98.3216, 97.9786, 98.456, 98.4764, 98.4633, 98.3583, 98.4643, 98.3942
1780.71, 97.1056, 97.7099, 97.2016, 97.2601, 97.4646, 96.906, 98.0661, 97.9338, 97.7876, 98.0593, 98.0593, 98.3531, 98.7159, 98.3487, 97.9802, 98.4596, 98.5053, 98.4735, 98.3567, 98.4524, 98.3923
1780.65, 97.1042, 97.7232, 97.2072, 97.2854, 97.4479, 96.8967, 98.0725, 97.9321, 97.8123, 98.0643, 98.0643, 98.3628, 98.7204, 98.3738, 97.9897, 98.455, 98.5275, 98.4892, 98.3476, 98.4441, 98.3956
1780.59, 97.1085, 97.7287, 97.2119, 97.3109, 97.4344, 96.8839, 98.0738, 97.9293, 97.8238, 98.0651, 98.0651, 98.3755, 98.726, 98.3959, 98.0058, 98.4425, 98.5415, 98.5093, 98.3348, 98.4394, 98.404
1780.53, 97.1164, 97.7231, 97.2154, 97.3355, 97.4226, 96.8681, 98.0689, 97.9263, 97.8232, 98.0643, 98.0643, 98.3915, 98.7323, 98.414, 98.0265, 98.4231, 98.5467, 98.5322, 98.3229, 98.4385, 98.4166
1780.47, 97.1252, 97.7044, 97.2175, 97.3567, 97.411, 96.8501, 98.0577, 97.9239, 97.8133, 98.0649, 98.0649, 98.4102, 98.7379, 98.4281, 98.0504, 98.3984, 98.5427, 98.5555, 98.316, 98.4411, 98.4321
1780.41, 97.1327, 97.673, 97.2179, 97.3709, 97.3983, 96.8307, 98.0411, 97.9223, 97.7978, 98.0697, 98.0697, 98.4305, 98.7404, 98.438, 98.0761, 98.3701, 98.5298, 98.5769, 98.3167, 98.4467, 98.449
1780.35, 97.1369, 97.631, 97.2166, 97.3747, 97.384, 96.8106, 98.0209, 97.921, 97.7806, 98.08, 98.08, 98.4504, 98.738, 98.444, 98.1031, 98.3399, 98.5085, 98.5938, 98.3251, 98.4542, 98.4659
1780.29, 97.1363, 97.582, 97.2132, 97.3657, 97.3685, 96.7905, 97.9992, 97.9185, 97.7649, 98.0958, 98.0958, 98.4681, 98.7298, 98.4465, 98.1314, 98.3095, 98.4808, 98.6039, 98.3398, 98.4617, 98.4819
1780.23, 97.1295, 97.5304, 97.2076, 97.3436, 97.3533, 96.7713, 97.978, 97.913, 97.7529, 98.1155, 98.1155, 98.4814, 98.7163, 98.4462, 98.1609, 98.28, 98.4497, 98.6061, 98.3583, 98.467, 98.4966
1780.17, 97.1155, 97.4804, 97.1993, 97.3108, 97.3402, 96.7545, 97.9588, 97.9027, 97.7461, 98.1366, 98.1366, 98.4885, 98.6989, 98.4444, 98.1915, 98.252, 98.4195, 98.6006, 98.3778, 98.4679, 98.5098
1780.11, 97.0939, 97.4357, 97.1884, 97.2713, 97.3312, 96.7415, 97.9424, 97.887, 97.7449, 98.1567, 98.1567, 98.4877, 98.6795, 98.4424, 98.2221, 98.2262, 98.3952, 98.589, 98.396, 98.463, 98.5217
1780.05, 97.0656, 97.3986, 97.1751, 97.2301, 97.3275, 96.7338, 97.9291, 97.8667, 97.7492, 98.1734, 98.1734, 98.4773, 98.6596, 98.4416, 98.2508, 98.2036, 98.3811, 98.5744, 98.4117, 98.4519, 98.5326
1779.99, 97.0327, 97.3703, 97.1603, 97.192, 97.3294, 96.7325, 97.9192, 97.8438, 97.7584, 98.1853, 98.1853, 98.4565, 98.6402, 98.4426, 98.2746, 98.1856, 98.3801, 98.5601, 98.4236, 98.4359, 98.5423
1779.93, 96.9992, 97.3508, 97.1451, 97.1607, 97.3355, 96.7377, 97.9127, 97.8217, 97.771, 98.1913, 98.1913, 98.425, 98.6213, 98.4456, 98.2906, 98.1739, 98.3926, 98.5494, 98.4312, 98.4169, 98.5503
1779.87, 96.9693, 97.3392, 97.1311, 97.1378, 97.343, 96.7487, 97.9099, 97.8038, 97.7847, 98.1906, 98.1906, 98.3841, 98.6028, 98.4495, 98.2963, 98.1705, 98.4162, 98.5441, 98.4341, 98.3975, 98.5557
1779.81, 96.9472, 97.3345, 97.1193, 97.1236, 97.3489, 96.7635, 97.9106, 97.7933, 97.7969, 98.1822, 98.1822, 98.3366, 98.5848, 98.4527, 98.2906, 98.177, 98.4464, 98.5441, 98.4322, 98.3804, 98.5579
1779.75, 96.9349, 97.3356, 97.1103, 97.1171, 97.3505, 96.7795, 97.9147, 97.7924, 97.8049, 98.1654, 98.1654, 98.2871, 98.568, 98.4535, 98.2744, 98.1936, 98.4773, 98.5479, 98.4266, 98.3672, 98.5559
1779.69, 96.9325, 97.3418, 97.1038, 97.1164, 97.3468, 96.7938, 97.9214, 97.8018, 97.8065, 98.1396, 98.1396, 98.2412, 98.5537, 98.4509, 98.2505, 98.2192, 98.5034, 98.5531, 98.4194, 98.359, 98.5494
1779.63, 96.9372, 97.3528, 97.0984, 97.12, 97.3382, 96.804, 97.9297, 97.8204, 97.8005, 98.1052, 98.1052, 98.2045, 98.5437, 98.4448, 98.2232, 98.2514, 98.5205, 98.5571, 98.4139, 98.3562, 98.5387
1779.57, 96.9447, 97.3682, 97.0917, 97.126, 97.3272, 96.8085, 97.9386, 97.8459, 97.7874, 98.0641, 98.0641, 98.1814, 98.5399, 98.4365, 98.1969, 98.2864, 98.5266, 98.5586, 98.4135, 98.3582, 98.5244
1779.51, 96.9506, 97.3871, 97.0813, 97.1326, 97.3166, 96.8072, 97.9473, 97.8746, 97.7693, 98.02, 98.02, 98.1743, 98.543, 98.4283, 98.1755, 98.3202, 98.5223, 98.5573, 98.4205, 98.3643, 98.5077
1779.45, 96.9513, 97.4078, 97.0651, 97.1383, 97.3087, 96.8013, 97.9556, 97.9023, 97.7491, 97.9773, 97.9773, 98.1826, 98.5528, 98.4224, 98.1611, 98.3493, 98.5102, 98.554, 98.4355, 98.3728, 98.4899
1779.39, 96.945, 97.4273, 97.042, 97.1415, 97.3042, 96.793, 97.9636, 97.9249, 97.7299, 97.9412, 97.9412, 98.2033, 98.5677, 98.4209, 98.154, 98.3717, 98.4941, 98.5498, 98.4562, 98.3817, 98.4723
1779.33, 96.9323, 97.4426, 97.0128, 97.1409, 97.3021, 96.785, 97.9719, 97.9387, 97.7144, 97.916, 97.916, 98.232, 98.5852, 98.4244, 98.1528, 98.3871, 98.478, 98.5457, 98.4784, 98.3883, 98.4562
1779.27, 96.9148, 97.4507, 96.9796, 97.1357, 97.2997, 96.7792, 97.9815, 97.9412, 97.7035, 97.904, 97.904, 98.2636, 98.6021, 98.4322, 98.1555, 98.3967, 98.4652, 98.5416, 98.4968, 98.3895, 98.4427
1779.21, 96.8952, 97.45, 96.9462, 97.126, 97.2941, 96.7769, 97.9931, 97.9318, 97.6967, 97.9047, 97.9047, 98.2934, 98.6157, 98.4424, 98.16, 98.4032, 98.4575, 98.5372, 98.5069, 98.3826, 98.4327
1779.15, 96.8761, 97.4409, 96.917, 97.1127, 97.2831, 96.7778, 98.0075, 97.9115, 97.6925, 97.9153, 97.9153, 98.318, 98.6239, 98.4522, 98.1647, 98.4099, 98.4552, 98.5317, 98.5064, 98.3659, 98.4268
1779.09, 96.8597, 97.4256, 96.8965, 97.0973, 97.2661, 96.7802, 98.0248, 97.8829, 97.6887, 97.931, 97.931, 98.3352, 98.6257, 98.4592, 98.1693, 98.4196, 98.4571, 98.525, 98.4961, 98.3399, 98.4259
1779.03, 96.8476, 97.4076, 96.8878, 97.0818, 97.2441, 96.782, 98.0445, 97.8502, 97.6835, 97.9464, 97.9464, 98.3439, 98.6215, 98.4613, 98.1736, 98.4346, 98.4608, 98.5182, 98.479, 98.3074, 98.4302
1778.97, 96.8408, 97.3906, 96.8922, 97.0679, 97.2196, 96.7806, 98.065, 97.8178, 97.6763, 97.9567, 97.9567, 98.3437, 98.6122, 98.4573, 98.1781, 98.4555, 98.4637, 98.5128, 98.4602, 98.2732, 98.4401
1778.91, 96.8397, 97.3769, 96.9089, 97.0567, 97.195, 96.7743, 98.0835, 97.7897, 97.6672, 97.9595, 97.9595, 98.3351, 98.5991, 98.4473, 98.1829, 98.4818, 98.4635, 98.5106, 98.4442, 98.2435, 98.4556
1778.84, 96.8438, 97.3674, 96.9344, 97.0486, 97.1723, 96.7625, 98.0965, 97.7689, 97.6574, 97.9547, 97.9547, 98.3194, 98.5838, 98.4318, 98.1878, 98.5116, 98.4586, 98.5127, 98.4346, 98.2237, 98.4764
1778.78, 96.8516, 97.3611, 96.9638, 97.043, 97.1523, 96.7455, 98.0998, 97.7566, 97.6479, 97.9448, 97.9448, 98.2991, 98.5674, 98.4118, 98.192, 98.5419, 98.449, 98.5183, 98.4331, 98.2177, 98.502
1778.72, 96.8607, 97.3558, 96.9913, 97.0389, 97.1349, 96.725, 98.0902, 97.7523, 97.6397, 97.9338, 97.9338, 98.2776, 98.5503, 98.3889, 98.1947, 98.5693, 98.4359, 98.5251, 98.439, 98.2266, 98.531
1778.66, 96.8677, 97.3493, 97.0113, 97.0353, 97.1192, 96.7029, 98.0661, 97.754, 97.6331, 97.9259, 97.9259, 98.2589, 98.5331, 98.3646, 98.1946, 98.5905, 98.4212, 98.5298, 98.4505, 98.2484, 98.5621
1778.6, 96.8697, 97.3401, 97.0198, 97.0312, 97.1045, 96.6814, 98.0284, 97.7586, 97.6281, 97.9244, 97.9244, 98.2463, 98.5156, 98.3408, 98.1908, 98.6026, 98.4074, 98.5291, 98.4647, 98.2784, 98.5931
1778.54, 96.8645, 97.3276, 97.015, 97.0265, 97.09, 96.6624, 97.9812, 97.7628, 97.6243, 97.9301, 97.9301, 98.2421, 98.498, 98.3196, 98.1826, 98.6038, 98.3961, 98.5211, 98.4784, 98.3112, 98.6219
1778.48, 96.8519, 97.3125, 96.9976, 97.0213, 97.0759, 96.6474, 97.9309, 97.7639, 97.6219, 97.9414, 97.9414, 98.2463, 98.4806, 98.3031, 98.1693, 98.594, 98.3882, 98.5057, 98.4883, 98.3415, 98.6463
1778.42, 96.8337, 97.2954, 96.9704, 97.0166, 97.0621, 96.6375, 97.8846, 97.7604, 97.6215, 97.9546, 97.9546, 98.2571, 98.4643, 98.2929, 98.1509, 98.5748, 98.3833, 98.4843, 98.4917, 98.3656, 98.6649
1778.36, 96.8132, 97.2772, 96.9375, 97.0129, 97.0491, 96.6329, 97.8488, 97.7523, 97.6238, 97.9649, 97.9649, 98.2709, 98.4506, 98.2899, 98.1278, 98.5492, 98.3799, 98.4595, 98.4861, 98.3818, 98.6767
1778.3, 96.794, 97.2579, 96.9031, 97.011, 97.0373, 96.6331, 97.827, 97.7411, 97.6296, 97.9678, 97.9678, 98.2842, 98.4409, 98.2936, 98.101, 98.5213, 98.3766, 98.4339, 98.4706, 98.3907, 98.6818
1778.24, 96.7789, 97.2375, 96.8706, 97.0106, 97.0274, 96.6366, 97.8194, 97.7295, 97.6387, 97.9608, 97.9608, 98.2945, 98.4369, 98.3022, 98.0723, 98.4951, 98.3719, 98.4089, 98.4457, 98.394, 98.6808
1778.18, 96.7688, 97.2156, 96.8414, 97.0109, 97.0204, 96.641, 97.8228, 97.7208, 97.6502, 97.944, 97.944, 98.3007, 98.4397, 98.3128, 98.0441, 98.4738, 98.3654, 98.3851, 98.4141, 98.3941, 98.6749
1778.12, 96.763, 97.1928, 96.8155, 97.0104, 97.0174, 96.6434, 97.8315, 97.7183, 97.6619, 97.9202, 97.9202, 98.3037, 98.45, 98.3223, 98.0188, 98.459, 98.3579, 98.3621, 98.3798, 98.3929, 98.6649
1778.06, 96.7593, 97.1697, 96.7914, 97.0071, 97.0193, 96.6411, 97.8395, 97.7245, 97.6711, 97.8943, 97.8943, 98.305, 98.4674, 98.3278, 97.9984, 98.4503, 98.3507, 98.3399, 98.3479, 98.3919, 98.6512
1778, 96.7552, 97.1477, 96.7671, 96.9991, 97.0261, 96.632, 97.8421, 97.7404, 97.6749, 97.8715, 97.8715, 98.306, 98.491, 98.3282, 97.9843, 98.4458, 98.3454, 98.3189, 98.323, 98.3916, 98.6341
1777.94, 96.7493, 97.1276, 96.7414, 96.9851, 97.0367, 96.6159, 97.8368, 97.7656, 97.6712, 97.8559, 97.8559, 98.3068, 98.5192, 98.324, 97.9765, 98.4424, 98.3427, 98.3007, 98.3082, 98.3924, 98.6133
1777.88, 96.7413, 97.1099, 96.714, 96.9648, 97.0485, 96.5939, 97.8241, 97.7978, 97.6593, 97.8492, 97.8492, 98.3061, 98.5499, 98.3174, 97.9741, 98.4371, 98.3424, 98.2873, 98.3038, 98.3942, 98.5892
1777.82, 96.7322, 97.0941, 96.6859, 96.9387, 97.0583, 96.5688, 97.8069, 97.8334, 97.6397, 97.8501, 97.8501, 98.3019, 98.5811, 98.3116, 97.9754, 98.428, 98.3429, 98.2807, 98.308, 98.3973, 98.5629
1777.76, 96.7238, 97.0791, 96.6594, 96.9085, 97.0627, 96.5438, 97.789, 97.8682, 97.6141, 97.8549, 97.8549, 98.2928, 98.6102, 98.3097, 97.9784, 98.4145, 98.3419, 98.2821, 98.3171, 98.4017, 98.5366
1777.7, 96.7174, 97.0637, 96.6365, 96.876, 97.0601, 96.5216, 97.7743, 97.8976, 97.5851, 97.8586, 97.8586, 98.2784, 98.6353, 98.3133, 97.981, 98.3979, 98.337, 98.2916, 98.327, 98.4073, 98.513
1777.64, 96.7136, 97.0472, 96.6187, 96.8437, 97.0507, 96.5037, 97.7654, 97.9181, 97.5555, 97.8565, 97.8565, 98.2609, 98.6546, 98.3223, 97.9817, 98.3804, 98.3269, 98.3081, 98.3344, 98.4138, 98.4952
1777.58, 96.7119, 97.0294, 96.606, 96.8132, 97.0371, 96.4899, 97.7637, 97.9273, 97.528, 97.8458, 97.8458, 98.2437, 98.667, 98.3341, 97.98, 98.3649, 98.3118, 98.3299, 98.3371, 98.4207, 98.4854
1777.52, 96.7107, 97.0108, 96.597, 96.7857, 97.0231, 96.4789, 97.7687, 97.9244, 97.5045, 97.8261, 97.8261, 98.231, 98.6723, 98.3453, 97.976, 98.3539, 98.2939, 98.3554, 98.3346, 98.4272, 98.4845
1777.46, 96.7081, 96.992, 96.5892, 96.7614, 97.0122, 96.4687, 97.779, 97.9102, 97.4863, 97.8, 97.8, 98.226, 98.6717, 98.3518, 97.9704, 98.3486, 98.2765, 98.3831, 98.327, 98.4329, 98.4917
1777.4, 96.7029, 96.9733, 96.5796, 96.7395, 97.0066, 96.4579, 97.7922, 97.8868, 97.4734, 97.7717, 97.7717, 98.2298, 98.6672, 98.3511, 97.9646, 98.3492, 98.2635, 98.4116, 98.315, 98.4376, 98.5044
1777.34, 96.6941, 96.9544, 96.5657, 96.7188, 97.0059, 96.4456, 97.8056, 97.857, 97.4655, 97.7463, 97.7463, 98.2407, 98.6621, 98.3426, 97.96, 98.3547, 98.2578, 98.4402, 98.2991, 98.4417, 98.5196
1777.28, 96.6816, 96.9348, 96.5465, 96.6977, 97.0071, 96.4315, 97.8162, 97.8238, 97.4612, 97.7281, 97.7281, 98.2549, 98.6596, 98.3279, 97.9579, 98.3632, 98.261, 98.4675, 98.2801, 98.4456, 98.5336
1777.22, 96.6654, 96.9138, 96.5223, 96.6749, 97.0063, 96.4158, 97.8214, 97.7899, 97.4592, 97.7198, 97.7198, 98.2674, 98.6624, 98.3104, 97.9586, 98.3724, 98.2723, 98.4923, 98.2589, 98.4492, 98.5439
1777.16, 96.6457, 96.8914, 96.495, 96.6499, 96.9994, 96.3979, 97.819, 97.7572, 97.4581, 97.7219, 97.7219, 98.2734, 98.6717, 98.2936, 97.9622, 98.3799, 98.2893, 98.5134, 98.2376, 98.452, 98.5486
1777.1, 96.6226, 96.8684, 96.4668, 96.6234, 96.9839, 96.3765, 97.8076, 97.7268, 97.4572, 97.733, 97.733, 98.2699, 98.6869, 98.2802, 97.9673, 98.3839, 98.3085, 98.5301, 98.2192, 98.4527, 98.5471
1777.04, 96.5956, 96.8461, 96.4404, 96.597, 96.9593, 96.35, 97.7867, 97.6988, 97.4557, 97.7499, 97.7499, 98.2563, 98.7053, 98.2709, 97.9727, 98.3831, 98.3264, 98.5422, 98.2073, 98.45, 98.5397
1776.98, 96.5643, 96.826, 96.4175, 96.5731, 96.9269, 96.3168, 97.7572, 97.6723, 97.4533, 97.769, 97.769, 98.2343, 98.7233, 98.264, 97.9769, 98.3766, 98.3402, 98.5501, 98.2052, 98.4431, 98.5273
1776.92, 96.5287, 96.8091, 96.3988, 96.5546, 96.8892, 96.2761, 97.7209, 97.646, 97.4493, 97.7862, 97.7862, 98.2074, 98.7368, 98.2563, 97.9795, 98.3646, 98.3485, 98.5545, 98.2149, 98.4323, 98.5114
1776.86, 96.4887, 96.7951, 96.3834, 96.5437, 96.8488, 96.2292, 97.6806, 97.6186, 97.4429, 97.7983, 97.7983, 98.1798, 98.7426, 98.2442, 97.9808, 98.3476, 98.3512, 98.5554, 98.2366, 98.4199, 98.494
1776.8, 96.4448, 96.7832, 96.3694, 96.5414, 96.8078, 96.1786, 97.6396, 97.5891, 97.4324, 97.8031, 97.8031, 98.1552, 98.7394, 98.2248, 97.9824, 98.3267, 98.3491, 98.5525, 98.2686, 98.4095, 98.4776
1776.74, 96.398, 96.7716, 96.3546, 96.5465, 96.7677, 96.1282, 97.601, 97.5575, 97.4163, 97.8002, 97.8002, 98.1363, 98.7282, 98.197, 97.9861, 98.3034, 98.3434, 98.5447, 98.3073, 98.4049, 98.465
1776.68, 96.3496, 96.759, 96.3364, 96.556, 96.7297, 96.0815, 97.5676, 97.5246, 97.3935, 97.7905, 97.7905, 98.1238, 98.7119, 98.1617, 97.9931, 98.2792, 98.335, 98.5311, 98.349, 98.4092, 98.4584
1776.62, 96.301, 96.7446, 96.3133, 96.5651, 96.6949, 96.0412, 97.5412, 97.4922, 97.364, 97.7767, 97.7767, 98.1165, 98.6944, 98.1218, 98.0031, 98.2554, 98.3247, 98.5116, 98.3898, 98.423, 98.4595
1776.55, 96.2541, 96.7286, 96.2845, 96.5684, 96.6648, 96.0084, 97.5231, 97.4624, 97.3294, 97.7621, 97.7621, 98.1117, 98.6798, 98.0809, 98.0143, 98.2334, 98.3134, 98.4879, 98.4266, 98.4443, 98.4682
1776.49, 96.2105, 96.7118, 96.2506, 96.561, 96.6407, 95.9824, 97.5133, 97.4372, 97.293, 97.75, 97.75, 98.1058, 98.6708, 98.043, 98.0229, 98.2145, 98.3021, 98.463, 98.4569, 98.4684, 98.4827
1776.43, 96.1716, 96.6952, 96.2132, 96.5396, 96.6232, 95.9614, 97.5115, 97.4173, 97.2588, 97.743, 97.743, 98.0951, 98.6687, 98.0115, 98.025, 98.1996, 98.2927, 98.4407, 98.4792, 98.4893, 98.4997
1776.37, 96.138, 96.6792, 96.1743, 96.5034, 96.6113, 95.9434, 97.5162, 97.4024, 97.2307, 97.7421, 97.7421, 98.0772, 98.673, 97.9891, 98.017, 98.19, 98.2876, 98.4246, 98.4921, 98.5016, 98.5153
1776.31, 96.1096, 96.6637, 96.1357, 96.454, 96.6024, 95.9267, 97.5258, 97.3905, 97.2116, 97.7467, 97.7467, 98.0515, 98.6816, 97.9779, 97.9975, 98.1861, 98.2893, 98.4163, 98.4953, 98.5019, 98.5261
1776.25, 96.0851, 96.6478, 96.0983, 96.3948, 96.5925, 95.9097, 97.5382, 97.3792, 97.202, 97.7546, 97.7546, 98.0198, 98.692, 97.9797, 97.9674, 98.188, 98.2997, 98.4156, 98.4891, 98.4899, 98.5301
1776.19, 96.0627, 96.6303, 96.0621, 96.3306, 96.5769, 95.8915, 97.5513, 97.3659, 97.2002, 97.7632, 97.7632, 97.9862, 98.7021, 97.9955, 97.9304, 98.1951, 98.319, 98.4201, 98.4755, 98.4682, 98.5276
1776.13, 96.0404, 96.6105, 96.0255, 96.2658, 96.5521, 95.8712, 97.5627, 97.3493, 97.2029, 97.7699, 97.7699, 97.9556, 98.7101, 98.0254, 97.8915, 98.2057, 98.3456, 98.4264, 98.4577, 98.4419, 98.521
1776.07, 96.0168, 96.5881, 95.9864, 96.2041, 96.5161, 95.8481, 97.5703, 97.3299, 97.2061, 97.7737, 97.7737, 97.9334, 98.7156, 98.0679, 97.8565, 98.2177, 98.3759, 98.4319, 98.4402, 98.4162, 98.5137
1776.01, 95.9912, 96.5635, 95.9429, 96.1476, 96.4697, 95.8214, 97.5723, 97.3095, 97.2061, 97.7743, 97.7743, 97.9232, 98.7188, 98.1196, 97.8301, 98.2286, 98.4051, 98.4354, 98.4275, 98.3957, 98.5098
1775.95, 95.9634, 96.5371, 95.8938, 96.097, 96.4158, 95.7912, 97.5672, 97.2911, 97.2005, 97.7729, 97.7729, 97.9262, 98.7199, 98.1752, 97.8156, 98.2363, 98.4285, 98.4377, 98.4233, 98.3832, 98.5119
1775.89, 95.9339, 96.5093, 95.8396, 96.0518, 96.3587, 95.7585, 97.5543, 97.2776, 97.1883, 97.7709, 97.7709, 97.9405, 98.7194, 98.2279, 97.8141, 98.2399, 98.4424, 98.4411, 98.4294, 98.3792, 98.5213
1775.83, 95.9028, 96.4797, 95.7821, 96.0114, 96.3032, 95.7255, 97.5336, 97.2705, 97.1698, 97.7689, 97.7689, 97.9612, 98.7165, 98.2709, 97.8244, 98.2393, 98.4455, 98.4481, 98.4453, 98.3827, 98.5367
1775.77, 95.8694, 96.4474, 95.7244, 95.9747, 96.2538, 95.6948, 97.506, 97.2691, 97.1456, 97.7663, 97.7663, 97.9818, 98.71, 98.2986, 97.8438, 98.2361, 98.4388, 98.4602, 98.4686, 98.392, 98.5553
1775.71, 95.8326, 96.4111, 95.6698, 95.9412, 96.2133, 95.6685, 97.4732, 97.2707, 97.1161, 97.7612, 97.7612, 97.9954, 98.6978, 98.3082, 97.8684, 98.2324, 98.4252, 98.4773, 98.4953, 98.405, 98.5727
1775.65, 95.7909, 96.3694, 95.6205, 95.911, 96.1832, 95.6475, 97.4376, 97.2714, 97.0816, 97.7512, 97.7512, 97.9962, 98.6779, 98.3003, 97.8937, 98.2305, 98.4083, 98.4976, 98.5212, 98.4199, 98.5844
1775.59, 95.7429, 96.321, 95.5775, 95.8842, 96.163, 95.6307, 97.402, 97.2673, 97.042, 97.7337, 97.7337, 97.9809, 98.6487, 98.2787, 97.9156, 98.2327, 98.3915, 98.5185, 98.5426, 98.4352, 98.5867
1775.53, 95.6885, 96.2655, 95.54, 95.861, 96.1505, 95.6155, 97.3686, 97.2559, 96.998, 97.7079, 97.7079, 97.9496, 98.6098, 98.2495, 97.9311, 98.2405, 98.3766, 98.5377, 98.5566, 98.4497, 98.577
1775.47, 95.6289, 96.2031, 95.5062, 95.8415, 96.1421, 95.5979, 97.339, 97.2367, 96.951, 97.6747, 97.6747, 97.9058, 98.5631, 98.2197, 97.9391, 98.2549, 98.3637, 98.5541, 98.5615, 98.4621, 98.5551
1775.41, 95.5663, 96.1347, 95.4739, 95.8251, 96.1331, 95.5744, 97.3133, 97.2118, 96.9038, 97.6368, 97.6368, 97.8557, 98.5121, 98.1954, 97.9403, 98.2757, 98.3512, 98.5676, 98.5562, 98.4712, 98.5224
1775.35, 95.5033, 96.0617, 95.4414, 95.8108, 96.1186, 95.5422, 97.2903, 97.1844, 96.8602, 97.5985, 97.5985, 97.807, 98.4623, 98.1807, 97.9377, 98.302, 98.3371, 98.5792, 98.541, 98.4766, 98.4827
1775.29, 95.4422, 95.9865, 95.4079, 95.7968, 96.0943, 95.5008, 97.2677, 97.158, 96.8244, 97.5639, 97.5639, 97.7672, 98.4202, 98.1769, 97.9352, 98.3317, 98.3197, 98.5898, 98.5167, 98.4782, 98.4407
1775.23, 95.3843, 95.9115, 95.3735, 95.7809, 96.0578, 95.4507, 97.2428, 97.1347, 96.7995, 97.5367, 97.5367, 97.7424, 98.3918, 98.1829, 97.9368, 98.3618, 98.2988, 98.5992, 98.4855, 98.4769, 98.4014
1775.17, 95.3297, 95.8395, 95.3386, 95.7608, 96.009, 95.3939, 97.2131, 97.1144, 96.7865, 97.5183, 97.5183, 97.7359, 98.3817, 98.1956, 97.9451, 98.3885, 98.2758, 98.6068, 98.4506, 98.4739, 98.369
1775.11, 95.2779, 95.7731, 95.3034, 95.7344, 95.9504, 95.3321, 97.1772, 97.095, 96.7843, 97.5084, 97.5084, 97.7473, 98.3916, 98.2108, 97.9602, 98.4078, 98.2537, 98.6111, 98.4159, 98.4705, 98.3463
1775.05, 95.2282, 95.7143, 95.2674, 95.7005, 95.8866, 95.2669, 97.1352, 97.0731, 96.789, 97.5048, 97.5048, 97.7726, 98.4201, 98.2241, 97.9799, 98.4162, 98.236, 98.611, 98.3857, 98.4673, 98.3343
1774.99, 95.1806, 95.6637, 95.2293, 95.6586, 95.8231, 95.1995, 97.0887, 97.0451, 96.7957, 97.5044, 97.5044, 97.8051, 98.4625, 98.2321, 97.9996, 98.4123, 98.2257, 98.6064, 98.3631, 98.4641, 98.3322
1774.93, 95.1357, 95.6208, 95.1877, 95.6099, 95.7644, 95.1307, 97.0406, 97.0086, 96.7989, 97.5037, 97.5037, 97.8369, 98.5116, 98.2331, 98.0142, 98.3967, 98.2245, 98.5984, 98.3496, 98.4596, 98.3382
1774.87, 95.0941, 95.5838, 95.1412, 95.5566, 95.7131, 95.0613, 96.9943, 96.9632, 96.7947, 97.5, 97.5, 97.8603, 98.5599, 98.2266, 98.0192, 98.3729, 98.2318, 98.5892, 98.3448, 98.4526, 98.3504
1774.81, 95.0562, 95.55, 95.0898, 95.5017, 95.669, 94.9927, 96.9529, 96.911, 96.7813, 97.492, 97.492, 97.8701, 98.6004, 98.2144, 98.0125, 98.346, 98.2453, 98.5811, 98.3466, 98.4423, 98.3671
1774.75, 95.0211, 95.5169, 95.0344, 95.4485, 95.6296, 94.926, 96.919, 96.856, 96.7597, 97.4795, 97.4795, 97.864, 98.6286, 98.1992, 97.9947, 98.3216, 98.2613, 98.5753, 98.3519, 98.4292, 98.3872
1774.69, 94.9862, 95.4824, 94.977, 95.3991, 95.591, 94.8624, 96.8932, 96.8032, 96.7333, 97.4635, 97.4635, 97.8431, 98.6429, 98.1841, 97.9694, 98.3044, 98.2761, 98.5716, 98.3577, 98.4154, 98.4098
1774.63, 94.9479, 95.4455, 94.9194, 95.3545, 95.5494, 94.8022, 96.8751, 96.7571, 96.7065, 97.4458, 97.4458, 97.8115, 98.6446, 98.1722, 97.9417, 98.2966, 98.2869, 98.5681, 98.3624, 98.4039, 98.4341
1774.57, 94.902, 95.4062, 94.8631, 95.3139, 95.502, 94.745, 96.8627, 96.7209, 96.6838, 97.4281, 97.4281, 97.7748, 98.6371, 98.1652, 97.917, 98.298, 98.2927, 98.562, 98.3656, 98.3982, 98.459
1774.51, 94.8451, 95.3657, 94.8084, 95.2744, 95.448, 94.6897, 96.8531, 96.6959, 96.668, 97.4116, 97.4116, 97.7386, 98.625, 98.1632, 97.9, 98.3061, 98.2944, 98.5508, 98.3682, 98.4008, 98.4827
1774.45, 94.7756, 95.325, 94.7542, 95.2325, 95.388, 94.635, 96.843, 96.6813, 96.6599, 97.397, 97.397, 97.7069, 98.6125, 98.1651, 97.8929, 98.3174, 98.2944, 98.5332, 98.372, 98.4127, 98.5035
1774.39, 94.6939, 95.2851, 94.6989, 95.1841, 95.3236, 94.5803, 96.8296, 96.6741, 96.658, 97.3842, 97.3842, 97.6821, 98.6032, 98.1685, 97.8961, 98.3285, 98.2959, 98.5096, 98.3788, 98.4327, 98.5197
1774.32, 94.6027, 95.2463, 94.6408, 95.1262, 95.2562, 94.5252, 96.8106, 96.6703, 96.6586, 97.3727, 97.3727, 97.6637, 98.599, 98.1711, 97.9078, 98.3375, 98.302, 98.4827, 98.3897, 98.4578, 98.5306
1774.26, 94.5058, 95.208, 94.5786, 95.0574, 95.1868, 94.4697, 96.7847, 96.6655, 96.6572, 97.3619, 97.3619, 97.6498, 98.6006, 98.171, 97.9249, 98.3436, 98.3147, 98.4561, 98.4052, 98.4839, 98.5361
1774.2, 94.4075, 95.1689, 94.5119, 94.9782, 95.1154, 94.4137, 96.7516, 96.6554, 96.6495, 97.3515, 97.3515, 97.6373, 98.6074, 98.1681, 97.9439, 98.3471, 98.3344, 98.4339, 98.4251, 98.5071, 98.5371
1774.14, 94.3117, 95.1272, 94.4408, 94.8906, 95.0421, 94.3564, 96.7115, 96.6372, 96.6323, 97.3416, 97.3416, 97.6235, 98.6179, 98.1635, 97.9615, 98.3484, 98.3602, 98.4195, 98.4483, 98.5243, 98.5339
1774.08, 94.2213, 95.081, 94.366, 94.7978, 94.967, 94.2964, 96.6655, 96.6095, 96.604, 97.333, 97.333, 97.6063, 98.63, 98.1595, 97.9754, 98.3474, 98.3897, 98.4148, 98.4733, 98.5341, 98.5271
1774.02, 94.1376, 95.0286, 94.2882, 94.7029, 94.8911, 94.2323, 96.6148, 96.5727, 96.5648, 97.3266, 97.3266, 97.585, 98.6409, 98.1587, 97.9844, 98.3432, 98.4199, 98.4202, 98.4977, 98.5369, 98.5165
1773.96, 94.0609, 94.9691, 94.208, 94.6083, 94.816, 94.1629, 96.5612, 96.5283, 96.5165, 97.3232, 97.3232, 97.5601, 98.6483, 98.1631, 97.9884, 98.3345, 98.4471, 98.4346, 98.5186, 98.5348, 98.5022
1773.9, 93.9901, 94.9022, 94.1262, 94.5157, 94.7435, 94.0886, 96.5068, 96.4791, 96.4614, 97.3233, 97.3233, 97.533, 98.6498, 98.1733, 97.9878, 98.3207, 98.4684, 98.4558, 98.5324, 98.5308, 98.4847
1773.84, 93.9231, 94.8287, 94.0441, 94.4258, 94.6748, 94.0113, 96.4538, 96.4285, 96.4025, 97.3265, 97.3265, 97.5056, 98.6443, 98.1881, 97.9838, 98.3023, 98.4815, 98.4812, 98.5357, 98.5278, 98.466
1773.78, 93.857, 94.7501, 93.9633, 94.3388, 94.6102, 93.9338, 96.4046, 96.3794, 96.3422, 97.332, 97.332, 97.4795, 98.6321, 98.205, 97.977, 98.2811, 98.485, 98.5078, 98.5262, 98.5281, 98.449
1773.72, 93.7884, 94.6684, 93.8862, 94.255, 94.5486, 93.8589, 96.3613, 96.3343, 96.2827, 97.3381, 97.3381, 97.4563, 98.6146, 98.2203, 97.9682, 98.26, 98.4792, 98.5331, 98.5035, 98.5325, 98.4373
1773.66, 93.7144, 94.5859, 93.8145, 94.1751, 94.4879, 93.7883, 96.3254, 96.2945, 96.2257, 97.3426, 97.3426, 97.4369, 98.5944, 98.2301, 97.9574, 98.2423, 98.4656, 98.5548, 98.4694, 98.5402, 98.434
1773.6, 93.6329, 94.504, 93.7493, 94.1003, 94.4259, 93.7213, 96.297, 96.26, 96.1722, 97.3435, 97.3435, 97.4218, 98.5741, 98.2317, 97.9446, 98.2303, 98.4471, 98.5711, 98.4281, 98.5492, 98.4401
1773.54, 93.5433, 94.4234, 93.6898, 94.0312, 94.3603, 93.6555, 96.2754, 96.2299, 96.1228, 97.3389, 97.3389, 97.4112, 98.5556, 98.2233, 97.9297, 98.225, 98.427, 98.581, 98.3851, 98.5565, 98.4542
1773.48, 93.4473, 94.3439, 93.6332, 93.9678, 94.2901, 93.5876, 96.2585, 96.2022, 96.0776, 97.3275, 97.3275, 97.4051, 98.5395, 98.2051, 97.9131, 98.2257, 98.4089, 98.5844, 98.346, 98.5594, 98.4726
1773.42, 93.3483, 94.2643, 93.5752, 93.9089, 94.215, 93.5145, 96.244, 96.1746, 96.0362, 97.3091, 97.3091, 97.4029, 98.5246, 98.1787, 97.8958, 98.2306, 98.3949, 98.5819, 98.3151, 98.5562, 98.4905
1773.36, 93.2511, 94.183, 93.5108, 93.8515, 94.1357, 93.4352, 96.2295, 96.1452, 95.9978, 97.2845, 97.2845, 97.4032, 98.5088, 98.147, 97.879, 98.2375, 98.3859, 98.5747, 98.2947, 98.5467, 98.5036
1773.3, 93.1601, 94.0988, 93.4357, 93.7919, 94.0527, 93.3507, 96.2133, 96.1124, 95.9614, 97.2559, 97.2559, 97.4041, 98.4895, 98.1133, 97.8639, 98.2445, 98.3805, 98.5646, 98.2844, 98.5325, 98.5094
1773.24, 93.0788, 94.0113, 93.3474, 93.7265, 93.9668, 93.2637, 96.1947, 96.0761, 95.9256, 97.2258, 97.2258, 97.403, 98.4652, 98.0811, 97.8512, 98.2505, 98.3764, 98.5534, 98.2824, 98.5163, 98.5082
1773.18, 93.0082, 93.921, 93.2455, 93.6526, 93.8782, 93.1772, 96.1736, 96.0371, 95.8891, 97.1973, 97.1973, 97.397, 98.4361, 98.0531, 97.8409, 98.2554, 98.3702, 98.5425, 98.2859, 98.501, 98.5026
1773.12, 92.9469, 93.8289, 93.1321, 93.57, 93.7867, 93.093, 96.1503, 95.9971, 95.8512, 97.1722, 97.1722, 97.3838, 98.4044, 98.0313, 97.8323, 98.2598, 98.3596, 98.5331, 98.2924, 98.4891, 98.4961
1773.06, 92.891, 93.7366, 93.0106, 93.4807, 93.6926, 93.0106, 96.1251, 95.9576, 95.8115, 97.1511, 97.1511, 97.3615, 98.3736, 98.0165, 97.8242, 98.2644, 98.3444, 98.5255, 98.3004, 98.4818, 98.4919
1773, 92.8349, 93.6454, 92.8849, 93.3884, 93.5959, 92.9272, 96.0976, 95.9197, 95.77, 97.1326, 97.1326, 97.3302, 98.3478, 98.0089, 97.8153, 98.2695, 98.3265, 98.5197, 98.3099, 98.4791, 98.4911
1772.94, 92.7727, 93.5561, 92.7584, 93.2978, 93.4973, 92.8391, 96.0671, 95.8831, 95.7274, 97.1136, 97.1136, 97.2912, 98.3309, 98.0079, 97.805, 98.2754, 98.3101, 98.5154, 98.3215, 98.48, 98.4931
1772.88, 92.699, 93.469, 92.6335, 93.2126, 93.3975, 92.7431, 96.0322, 95.8459, 95.6841, 97.0897, 97.0897, 97.2472, 98.3249, 98.0127, 97.7931, 98.2815, 98.3006, 98.5122, 98.3365, 98.483, 98.4956
1772.82, 92.6099, 93.3841, 92.511, 93.1346, 93.2975, 92.6379, 95.992, 95.8052, 95.6404, 97.0573, 97.0573, 97.2017, 98.3302, 98.0219, 97.7797, 98.2867, 98.3031, 98.5094, 98.3558, 98.4866, 98.4961
1772.76, 92.504, 93.301, 92.3908, 93.0629, 93.1973, 92.525, 95.946, 95.758, 95.5959, 97.0142, 97.0142, 97.1583, 98.3451, 98.0338, 97.7651, 98.2896, 98.3205, 98.5069, 98.3795, 98.4902, 98.4932
1772.7, 92.3824, 93.2201, 92.2715, 92.9944, 93.0968, 92.408, 95.8943, 95.7025, 95.5495, 96.9605, 96.9605, 97.1194, 98.3662, 98.046, 97.7492, 98.2888, 98.3523, 98.5044, 98.4064, 98.4936, 98.4876
1772.64, 92.2487, 93.1419, 92.1518, 92.9245, 92.9955, 92.2917, 95.8375, 95.6389, 95.4993, 96.899, 96.899, 97.0865, 98.3894, 98.0555, 97.7314, 98.2834, 98.3949, 98.5014, 98.4345, 98.4973, 98.4816
1772.58, 92.1079, 93.0674, 92.03, 92.8489, 92.8928, 92.1801, 95.7764, 95.5698, 95.4433, 96.8343, 96.8343, 97.0594, 98.4103, 98.059, 97.7116, 98.2733, 98.4419, 98.4975, 98.4611, 98.5022, 98.4784
1772.52, 91.9657, 92.9972, 91.9054, 92.7649, 92.7891, 92.075, 95.7118, 95.4995, 95.3799, 96.7705, 96.7705, 97.037, 98.4251, 98.053, 97.6899, 98.2596, 98.4859, 98.4919, 98.4832, 98.5089, 98.4806
1772.46, 91.8273, 92.9313, 91.7773, 92.6717, 92.6856, 91.9762, 95.644, 95.4327, 95.3084, 96.7109, 96.7109, 97.0172, 98.4308, 98.0351, 97.6678, 98.2449, 98.5204, 98.4838, 98.4983, 98.5181, 98.4887
1772.4, 91.6966, 92.8681, 91.6461, 92.5706, 92.5842, 91.8816, 95.5732, 95.3731, 95.2301, 96.6566, 96.6566, 96.9978, 98.4257, 98.0042, 97.6475, 98.2328, 98.5407, 98.4727, 98.5053, 98.5301, 98.5012
1772.34, 91.5755, 92.8049, 91.5126, 92.4643, 92.4875, 91.7886, 95.5001, 95.3222, 95.1474, 96.6067, 96.6067, 96.9766, 98.4097, 97.9612, 97.6321, 98.2271, 98.5453, 98.4585, 98.5044, 98.5444, 98.5142
1772.28, 91.4639, 92.7379, 91.378, 92.3557, 92.3975, 91.6948, 95.4256, 95.2788, 95.0645, 96.5596, 96.5596, 96.9513, 98.3837, 97.9089, 97.6241, 98.2308, 98.5349, 98.4419, 98.4971, 98.56, 98.5231
1772.22, 91.3604, 92.663, 91.2437, 92.2478, 92.315, 91.5984, 95.3513, 95.2399, 94.9859, 96.5138, 96.5138, 96.9199, 98.3503, 97.8518, 97.6247, 98.2453, 98.5121, 98.4244, 98.4867, 98.5748, 98.5239
1772.16, 91.2624, 92.5767, 91.1114, 92.1427, 92.2396, 91.4986, 95.2789, 95.2015, 94.9157, 96.4695, 96.4695, 96.8811, 98.3125, 97.795, 97.633, 98.2695, 98.4808, 98.4082, 98.4766, 98.5861, 98.5137
1772.1, 91.1673, 92.4771, 90.9822, 92.0417, 92.1693, 91.3952, 95.2103, 95.16, 94.8565, 96.428, 96.428, 96.834, 98.2741, 97.7435, 97.6459, 98.3, 98.4447, 98.3958, 98.4701, 98.5905, 98.4923
1772.03, 91.0729, 92.3649, 90.8574, 91.9453, 92.1016, 91.2882, 95.1469, 95.1135, 94.8087, 96.392, 96.392, 96.779, 98.238, 97.7013, 97.6591, 98.3321, 98.4066, 98.3895, 98.4691, 98.5852, 98.4618
1771.97, 90.9778, 92.2434, 90.7374, 91.8536, 92.0339, 91.1783, 95.0893, 95.0623, 94.7705, 96.3642, 96.3642, 96.7176, 98.2065, 97.6706, 97.6683, 98.3606, 98.3686, 98.3908, 98.4736, 98.5693, 98.4262
1771.91, 90.8814, 92.1179, 90.6228, 91.7657, 91.9647, 91.0672, 95.0377, 95.0086, 94.7384, 96.3458, 96.3458, 96.6527, 98.1808, 97.6522, 97.6705, 98.3815, 98.3315, 98.4004, 98.4816, 98.5442, 98.3903
1771.85, 90.7835, 91.995, 90.5134, 91.6804, 91.8939, 90.9575, 94.992, 94.9557, 94.708, 96.3363, 96.3363, 96.588, 98.1614, 97.6454, 97.6654, 98.393, 98.2952, 98.4179, 98.4897, 98.5139, 98.3589
1771.79, 90.6836, 91.8809, 90.4091, 91.5955, 91.8223, 90.8527, 94.9517, 94.9063, 94.6751, 96.3326, 96.3326, 96.5275, 98.1484, 97.6485, 97.6547, 98.3954, 98.2596, 98.4416, 98.4946, 98.4846, 98.3355
1771.73, 90.5808, 91.7804, 90.309, 91.5089, 91.7514, 90.7568, 94.9166, 94.8619, 94.6368, 96.3304, 96.3304, 96.4751, 98.1426, 97.6595, 97.6423, 98.3909, 98.225, 98.4696, 98.4937, 98.4626, 98.3219
1771.67, 90.4738, 91.696, 90.2119, 91.4186, 91.6825, 90.6727, 94.8858, 94.8225, 94.5919, 96.3253, 96.3253, 96.4335, 98.1449, 97.6764, 97.6326, 98.3825, 98.1923, 98.4994, 98.4862, 98.4529, 98.3181
1771.61, 90.3612, 91.6275, 90.1161, 91.3235, 91.6157, 90.6014, 94.8582, 94.7858, 94.5409, 96.3138, 96.3138, 96.4047, 98.1563, 97.6965, 97.6289, 98.3731, 98.1632, 98.5286, 98.4736, 98.4573, 98.3222
1771.55, 90.2425, 91.5727, 90.0199, 91.2238, 91.5499, 90.5408, 94.8319, 94.749, 94.4859, 96.2947, 96.2947, 96.3893, 98.1771, 97.7175, 97.6332, 98.3644, 98.1403, 98.5548, 98.4587, 98.474, 98.3318
1771.49, 90.1185, 91.5274, 89.9217, 91.121, 91.4826, 90.4866, 94.8043, 94.709, 94.4298, 96.2687, 96.2687, 96.3866, 98.2062, 97.7366, 97.6451, 98.3573, 98.1261, 98.5761, 98.4449, 98.4982, 98.3438
1771.43, 89.9914, 91.487, 89.821, 91.0178, 91.4109, 90.4326, 94.7729, 94.6633, 94.3759, 96.238, 96.238, 96.395, 98.2401, 97.7514, 97.6621, 98.3516, 98.1224, 98.5908, 98.4351, 98.5234, 98.3561
1771.37, 89.8648, 91.4466, 89.7182, 90.9172, 91.3324, 90.3729, 94.7358, 94.6111, 94.3267, 96.2056, 96.2056, 96.4118, 98.2736, 97.7598, 97.6809, 98.347, 98.1302, 98.5975, 98.431, 98.5437, 98.3671
1771.31, 89.7428, 91.4018, 89.6153, 90.8211, 91.2453, 90.3034, 94.6926, 94.5527, 94.284, 96.1739, 96.1739, 96.4334, 98.3004, 97.7609, 97.6979, 98.3429, 98.1485, 98.5958, 98.4328, 98.5547, 98.3766
1771.25, 89.6289, 91.3492, 89.5148, 90.7303, 91.1494, 90.2225, 94.6439, 94.49, 94.2482, 96.1448, 96.1448, 96.4553, 98.3151, 97.7551, 97.7104, 98.3393, 98.1753, 98.5858, 98.4391, 98.5552, 98.3848
1771.19, 89.5254, 91.2862, 89.4195, 90.6439, 91.0454, 90.1318, 94.592, 94.4255, 94.2178, 96.119, 96.119, 96.4728, 98.3147, 97.7442, 97.7172, 98.3361, 98.2076, 98.5685, 98.4483, 98.5465, 98.3922
1771.13, 89.4325, 91.2118, 89.3316, 90.56, 90.9352, 90.0347, 94.5392, 94.3616, 94.1902, 96.0969, 96.0969, 96.4811, 98.2994, 97.7311, 97.7187, 98.3334, 98.2425, 98.5456, 98.4584, 98.5313, 98.3993
1771.07, 89.349, 91.1266, 89.2519, 90.4764, 90.8208, 89.935, 94.4874, 94.3009, 94.1615, 96.0785, 96.0785, 96.4765, 98.2729, 97.719, 97.7168, 98.3307, 98.2774, 98.5194, 98.468, 98.5128, 98.4062
1771.01, 89.2722, 91.0328, 89.1797, 90.3922, 90.7047, 89.8359, 94.4377, 94.2449, 94.1278, 96.0643, 96.0643, 96.4569, 98.241, 97.7111, 97.714, 98.3275, 98.311, 98.492, 98.4767, 98.4937, 98.413
1770.95, 89.1992, 90.9338, 89.1131, 90.3074, 90.5893, 89.7389, 94.39, 94.1946, 94.0862, 96.0548, 96.0548, 96.422, 98.2107, 97.7092, 97.7129, 98.323, 98.3423, 98.4653, 98.4844, 98.4758, 98.42
1770.89, 89.1271, 90.8336, 89.0491, 90.2236, 90.477, 89.6443, 94.3439, 94.1505, 94.0351, 96.0498, 96.0498, 96.3734, 98.1872, 97.7143, 97.7151, 98.3165, 98.3711, 98.4404, 98.4912, 98.4607, 98.4279
1770.83, 89.0544, 90.7358, 88.9848, 90.1432, 90.3707, 89.5515, 94.2993, 94.1125, 93.9752, 96.0488, 96.0488, 96.3146, 98.1737, 97.7256, 97.7212, 98.3075, 98.3966, 98.418, 98.4969, 98.4499, 98.4379
1770.77, 88.9802, 90.6425, 88.9174, 90.0681, 90.2732, 89.4598, 94.2572, 94.0803, 93.909, 96.0496, 96.0496, 96.2503, 98.1701, 97.741, 97.7299, 98.2961, 98.4176, 98.3982, 98.5005, 98.4447, 98.4512
1770.71, 88.9048, 90.5538, 88.8451, 89.9991, 90.1867, 89.3694, 94.2194, 94.0534, 93.8403, 96.0492, 96.0492, 96.1855, 98.1734, 97.7574, 97.7388, 98.2831, 98.4325, 98.3809, 98.5, 98.4468, 98.4688
1770.65, 88.8291, 90.4682, 88.7671, 89.9352, 90.1126, 89.2815, 94.1885, 94.0311, 93.7733, 96.0443, 96.0443, 96.1255, 98.1792, 97.7715, 97.7447, 98.2699, 98.4396, 98.3664, 98.493, 98.4566, 98.4908
1770.59, 88.7546, 90.3831, 88.6839, 89.8743, 90.0504, 89.1981, 94.1663, 94.0123, 93.7114, 96.0319, 96.0319, 96.0742, 98.1828, 97.7802, 97.7451, 98.2589, 98.4385, 98.3556, 98.4768, 98.4735, 98.5159
1770.53, 88.6827, 90.2967, 88.5971, 89.8136, 89.9982, 89.1216, 94.153, 93.9957, 93.6567, 96.0109, 96.0109, 96.0345, 98.181, 97.7813, 97.738, 98.2523, 98.4302, 98.3497, 98.4496, 98.4951, 98.542
1770.47, 88.6148, 90.2083, 88.5094, 89.7507, 89.9525, 89.0543, 94.1466, 93.9795, 93.6098, 95.9825, 95.9825, 96.0073, 98.1722, 97.7744, 97.7237, 98.2528, 98.4174, 98.35, 98.4109, 98.518, 98.5658
1770.41, 88.5516, 90.1199, 88.4239, 89.6847, 89.9091, 88.9978, 94.1432, 93.9619, 93.5704, 95.95, 95.95, 95.9917, 98.1576, 97.7612, 97.7037, 98.2621, 98.4043, 98.3577, 98.363, 98.5385, 98.5842
1770.35, 88.4937, 90.0348, 88.344, 89.6161, 89.8647, 88.9529, 94.1381, 93.9413, 93.538, 95.9186, 95.9186, 95.9853, 98.14, 97.7446, 97.6809, 98.2809, 98.3954, 98.3731, 98.3103, 98.5538, 98.5944
1770.29, 88.4407, 89.9571, 88.2722, 89.5472, 89.817, 88.9192, 94.127, 93.9163, 93.5119, 95.8934, 95.8934, 95.9846, 98.123, 97.7286, 97.6586, 98.3079, 98.3945, 98.3953, 98.2593, 98.5629, 98.5948
1770.23, 88.3917, 89.8899, 88.2095, 89.4812, 89.7658, 88.8952, 94.1076, 93.8864, 93.492, 95.8784, 95.8784, 95.9858, 98.11, 97.7171, 97.6396, 98.3397, 98.403, 98.4222, 98.2171, 98.5664, 98.5846
1770.17, 88.3455, 89.8342, 88.1549, 89.4212, 89.7127, 88.878, 94.08, 93.8519, 93.4781, 95.8756, 95.8756, 95.9863, 98.103, 97.7124, 97.6256, 98.3717, 98.4203, 98.4505, 98.1899, 98.5663, 98.5644
1770.11, 88.3003, 89.7885, 88.1059, 89.3697, 89.6606, 88.8641, 94.047, 93.8139, 93.4694, 95.884, 95.884, 95.9848, 98.1021, 97.7149, 97.6166, 98.3986, 98.4432, 98.4766, 98.1813, 98.5649, 98.5357
1770.05, 88.2548, 89.7496, 88.0587, 89.328, 89.6125, 88.8492, 94.0124, 93.7737, 93.4641, 95.9002, 95.9002, 95.9819, 98.1057, 97.7229, 97.612, 98.4159, 98.4673, 98.4972, 98.1912, 98.5637, 98.5011
1769.99, 88.2074, 89.7137, 88.0094, 89.2958, 89.5706, 88.8292, 93.9803, 93.7329, 93.4599, 95.9197, 95.9197, 95.9796, 98.111, 97.733, 97.61, 98.4209, 98.488, 98.5101, 98.2163, 98.5635, 98.4642
1769.93, 88.1573, 89.6783, 87.9557, 89.2717, 89.5364, 88.8015, 93.9531, 93.6928, 93.4539, 95.9376, 95.9376, 95.9805, 98.1147, 97.7416, 97.6094, 98.4137, 98.5016, 98.5142, 98.2505, 98.5636, 98.429
1769.87, 88.1041, 89.6425, 87.8976, 89.2534, 89.5097, 88.7648, 93.9314, 93.6545, 93.4443, 95.95, 95.95, 95.9866, 98.1142, 97.746, 97.6089, 98.3969, 98.5059, 98.5103, 98.287, 98.563, 98.3997
1769.8, 88.0482, 89.6079, 87.8377, 89.2382, 89.4897, 88.7206, 93.9137, 93.6188, 93.4306, 95.9549, 95.9549, 95.9992, 98.1085, 97.7458, 97.6084, 98.3749, 98.5006, 98.5002, 98.3197, 98.5608, 98.3802
1769.74, 87.9904, 89.5768, 87.7803, 89.2239, 89.4755, 88.6721, 93.8974, 93.5866, 93.414, 95.9519, 95.9519, 96.0175, 98.098, 97.7426, 97.6081, 98.3524, 98.4869, 98.4865, 98.3448, 98.5566, 98.3728
1769.68, 87.9325, 89.5517, 87.7309, 89.2087, 89.4662, 88.6239, 93.88, 93.5584, 93.3975, 95.9419, 95.9419, 96.0402, 98.0845, 97.7399, 97.6088, 98.3334, 98.4665, 98.472, 98.3611, 98.5502, 98.3779
1769.62, 87.8768, 89.5341, 87.6939, 89.192, 89.4618, 88.581, 93.8601, 93.5349, 93.3844, 95.9269, 95.9269, 96.0652, 98.0703, 97.7417, 97.6109, 98.3199, 98.4416, 98.4589, 98.3694, 98.542, 98.3939
1769.56, 87.8259, 89.5238, 87.6722, 89.1747, 89.4625, 88.5472, 93.8383, 93.5164, 93.3778, 95.9088, 95.9088, 96.0909, 98.0578, 97.751, 97.6147, 98.3121, 98.414, 98.4485, 98.3719, 98.532, 98.4176
1769.5, 87.7825, 89.5195, 87.6656, 89.1583, 89.469, 88.525, 93.8168, 93.5031, 93.379, 95.8894, 95.8894, 96.1161, 98.0483, 97.7688, 97.6198, 98.3087, 98.3854, 98.441, 98.3708, 98.5199, 98.4451
1769.44, 87.7489, 89.5192, 87.6716, 89.1454, 89.4816, 88.5147, 93.7989, 93.4942, 93.3879, 95.8709, 95.8709, 96.1407, 98.0427, 97.7939, 97.6255, 98.3076, 98.3575, 98.4362, 98.368, 98.5056, 98.4728
1769.38, 87.7269, 89.5211, 87.6861, 89.1382, 89.5003, 88.5148, 93.7877, 93.4891, 93.4028, 95.855, 95.855, 96.1643, 98.0408, 97.8226, 97.6308, 98.307, 98.3322, 98.4333, 98.3642, 98.489, 98.4986
1769.32, 87.717, 89.5243, 87.7039, 89.1382, 89.5242, 88.5228, 93.7853, 93.4869, 93.4212, 95.8437, 95.8437, 96.1866, 98.0427, 97.8506, 97.6346, 98.3058, 98.3117, 98.4314, 98.3599, 98.4709, 98.5217
1769.26, 87.719, 89.5284, 87.7207, 89.1457, 89.552, 88.5356, 93.7921, 93.4869, 93.4413, 95.8388, 95.8388, 96.2063, 98.0484, 97.8736, 97.6361, 98.3037, 98.2983, 98.4301, 98.3558, 98.4529, 98.5425
1769.2, 87.7318, 89.5334, 87.7332, 89.1597, 89.5818, 88.5506, 93.8068, 93.4892, 93.4615, 95.8412, 95.8412, 96.2222, 98.0581, 97.8885, 97.6349, 98.3014, 98.2941, 98.4293, 98.3524, 98.4369, 98.5618
1769.14, 87.7536, 89.5395, 87.7397, 89.1779, 89.6115, 88.5661, 93.8269, 93.4945, 93.4816, 95.851, 95.851, 96.2329, 98.0721, 97.8944, 97.6309, 98.2998, 98.3006, 98.4289, 98.3506, 98.425, 98.5793
1769.08, 87.7822, 89.5462, 87.7403, 89.1978, 89.639, 88.5812, 93.8498, 93.5035, 93.5017, 95.8667, 95.8667, 96.2379, 98.0901, 97.8922, 97.624, 98.2997, 98.3178, 98.4288, 98.3512, 98.4184, 98.5936
1769.02, 87.8154, 89.5531, 87.7365, 89.217, 89.6627, 88.5965, 93.8736, 93.5165, 93.5221, 95.886, 95.886, 96.238, 98.1112, 97.8839, 97.6145, 98.3019, 98.3445, 98.4288, 98.3542, 98.4174, 98.6024
1768.96, 87.8507, 89.5599, 87.7308, 89.2343, 89.6813, 88.6132, 93.8977, 93.5334, 93.5428, 95.9059, 95.9059, 96.2351, 98.1331, 97.8722, 97.6022, 98.3065, 98.3783, 98.4279, 98.359, 98.421, 98.6028
1768.9, 87.8856, 89.567, 87.7268, 89.2496, 89.6946, 88.6331, 93.9222, 93.5531, 93.5634, 95.924, 95.924, 96.2315, 98.1535, 97.8593, 97.5872, 98.3137, 98.4152, 98.4254, 98.3647, 98.4274, 98.5929
1768.84, 87.918, 89.5754, 87.7282, 89.2642, 89.7036, 88.6579, 93.9481, 93.574, 93.5833, 95.9389, 95.9389, 96.2297, 98.1702, 97.8467, 97.5694, 98.3231, 98.4511, 98.4203, 98.3706, 98.435, 98.5726
1768.78, 87.9463, 89.5869, 87.7387, 89.2801, 89.7103, 88.6886, 93.9761, 93.5946, 93.6021, 95.9508, 95.9508, 96.2312, 98.1822, 97.8346, 97.5492, 98.3345, 98.4818, 98.4125, 98.3768, 98.4423, 98.5442
1768.72, 87.9696, 89.6036, 87.7611, 89.2994, 89.718, 88.7254, 94.0058, 93.614, 93.6197, 95.9608, 95.9608, 96.2365, 98.19, 97.8228, 97.5275, 98.3471, 98.5037, 98.403, 98.3844, 98.4485, 98.5115
1768.66, 87.9888, 89.627, 87.7972, 89.3238, 89.7304, 88.7671, 94.0355, 93.6327, 93.6371, 95.9706, 95.9706, 96.2453, 98.1958, 97.8109, 97.5061, 98.3597, 98.5149, 98.394, 98.3954, 98.4532, 98.4795
1768.6, 88.0062, 89.6583, 87.8468, 89.354, 89.7508, 88.8119, 94.063, 93.6519, 93.6556, 95.9817, 95.9817, 96.2573, 98.2025, 97.7988, 97.4874, 98.3712, 98.5149, 98.3883, 98.412, 98.4565, 98.4531
1768.54, 88.0252, 89.6978, 87.9082, 89.3897, 89.7814, 88.8576, 94.0854, 93.6734, 93.6765, 95.9946, 95.9946, 96.2718, 98.213, 97.7873, 97.4743, 98.38, 98.5053, 98.3893, 98.4352, 98.4584, 98.4357
1768.48, 88.0501, 89.7449, 87.9781, 89.4295, 89.8222, 88.9026, 94.1013, 93.6987, 93.701, 96.0093, 96.0093, 96.2887, 98.2289, 97.7781, 97.4691, 98.3844, 98.4891, 98.3998, 98.4645, 98.4593, 98.4292
1768.42, 88.0848, 89.7984, 88.0522, 89.4714, 89.8712, 88.9464, 94.1105, 93.7285, 93.7295, 96.0249, 96.0249, 96.3075, 98.25, 97.7734, 97.4737, 98.3835, 98.4703, 98.4208, 98.4976, 98.4596, 98.4339
1768.36, 88.1321, 89.8569, 88.1262, 89.5132, 89.925, 88.9897, 94.1147, 93.7627, 93.7618, 96.0411, 96.0411, 96.3272, 98.2745, 97.7755, 97.4887, 98.3765, 98.453, 98.4512, 98.5308, 98.4602, 98.4486
1768.3, 88.1932, 89.9184, 88.1963, 89.553, 89.979, 89.0342, 94.117, 93.8003, 93.797, 96.0577, 96.0577, 96.3459, 98.2995, 97.7857, 97.5133, 98.3639, 98.4399, 98.4878, 98.5599, 98.4625, 98.4716
1768.24, 88.2674, 89.9809, 88.2597, 89.5895, 90.0294, 89.082, 94.1213, 93.8403, 93.8339, 96.0754, 96.0754, 96.3611, 98.3218, 97.8037, 97.5459, 98.347, 98.4323, 98.5257, 98.5815, 98.468, 98.5008
1768.18, 88.3523, 90.042, 88.3154, 89.6227, 90.0736, 89.1344, 94.1308, 93.8817, 93.8714, 96.0951, 96.0951, 96.3704, 98.3391, 97.8278, 97.5839, 98.3281, 98.429, 98.559, 98.5935, 98.4778, 98.5336
1768.12, 88.4446, 90.1002, 88.3641, 89.6539, 90.1115, 89.1913, 94.1475, 93.9246, 93.9089, 96.1176, 96.1176, 96.3726, 98.3505, 97.8543, 97.6241, 98.3102, 98.4269, 98.5834, 98.596, 98.4917, 98.5675
1768.06, 88.5405, 90.1547, 88.4078, 89.6854, 90.1445, 89.2514, 94.1716, 93.9691, 93.9461, 96.143, 96.143, 96.3685, 98.356, 97.8793, 97.6634, 98.2963, 98.4216, 98.5959, 98.5904, 98.5085, 98.5996
1768, 88.6365, 90.2059, 88.4497, 89.7206, 90.176, 89.3123, 94.202, 94.0159, 93.9836, 96.1704, 96.1704, 96.3613, 98.3568, 97.8994, 97.6985, 98.2888, 98.4091, 98.5965, 98.579, 98.5254, 98.627
1767.94, 88.7294, 90.2553, 88.4933, 89.7632, 90.2093, 89.3717, 94.2368, 94.0649, 94.0219, 96.1983, 96.1983, 96.3556, 98.3542, 97.9123, 97.7265, 98.2889, 98.3866, 98.5874, 98.5643, 98.5389, 98.6472
1767.88, 88.8166, 90.3052, 88.5421, 89.816, 90.2477, 89.4282, 94.274, 94.1154, 94.0615, 96.2254, 96.2254, 96.3566, 98.3489, 97.9179, 97.745, 98.2959, 98.3537, 98.5724, 98.5486, 98.5458, 98.6582
1767.82, 88.8959, 90.3577, 88.5986, 89.8808, 90.2928, 89.4818, 94.312, 94.1662, 94.1022, 96.251, 96.251, 96.3682, 98.3414, 97.9177, 97.7522, 98.3077, 98.3123, 98.5551, 98.5333, 98.5436, 98.6593
1767.76, 88.9663, 90.4142, 88.6644, 89.9575, 90.3454, 89.534, 94.3503, 94.2159, 94.1429, 96.275, 96.275, 96.3922, 98.3315, 97.9143, 97.7478, 98.3206, 98.2668, 98.5385, 98.5197, 98.5317, 98.6512
1767.7, 89.0276, 90.4747, 88.7392, 90.0439, 90.4046, 89.5868, 94.3886, 94.2636, 94.1815, 96.2984, 96.2984, 96.4278, 98.3195, 97.91, 97.7329, 98.3307, 98.2225, 98.5239, 98.5089, 98.5109, 98.6353
1767.64, 89.0815, 90.5383, 88.8217, 90.1363, 90.4692, 89.6421, 94.4272, 94.3089, 94.2156, 96.3224, 96.3224, 96.4718, 98.3057, 97.9063, 97.7105, 98.3345, 98.1849, 98.5114, 98.5018, 98.4833, 98.6142
1767.58, 89.1308, 90.6032, 88.9091, 90.2298, 90.5372, 89.7011, 94.4663, 94.352, 94.2433, 96.3478, 96.3478, 96.5197, 98.2915, 97.9036, 97.6848, 98.3298, 98.1585, 98.4999, 98.4991, 98.4522, 98.5902
1767.51, 89.1798, 90.6678, 88.9986, 90.3193, 90.6069, 89.7642, 94.506, 94.3933, 94.264, 96.3748, 96.3748, 96.5669, 98.2791, 97.901, 97.6603, 98.3164, 98.1458, 98.4887, 98.5007, 98.4208, 98.5661
1767.45, 89.2328, 90.7311, 89.0873, 90.4009, 90.6768, 89.8309, 94.5462, 94.4331, 94.2792, 96.4031, 96.4031, 96.6093, 98.2708, 97.8975, 97.6413, 98.2962, 98.1473, 98.4773, 98.5059, 98.3926, 98.5441
1767.39, 89.2935, 90.7929, 89.1734, 90.4722, 90.746, 89.9006, 94.5869, 94.4713, 94.2928, 96.4317, 96.4317, 96.6444, 98.2686, 97.8928, 97.6305, 98.2722, 98.1613, 98.4662, 98.5129, 98.3705, 98.526
1767.33, 89.364, 90.8536, 89.2566, 90.5333, 90.8141, 89.9733, 94.6282, 94.5071, 94.31, 96.4598, 96.4598, 96.6713, 98.2738, 97.8873, 97.6288, 98.248, 98.185, 98.4563, 98.5191, 98.3571, 98.5134
1767.27, 89.4441, 90.9135, 89.3376, 90.5862, 90.8815, 90.0498, 94.6704, 94.5398, 94.3361, 96.4867, 96.4867, 96.6904, 98.2861, 97.8828, 97.635, 98.2267, 98.2146, 98.4486, 98.5214, 98.3546, 98.5074
1767.21, 89.5319, 90.9728, 89.4183, 90.635, 90.9487, 90.1313, 94.714, 94.5691, 94.3749, 96.512, 96.512, 96.7034, 98.3042, 97.8815, 97.6466, 98.2106, 98.2461, 98.4438, 98.5174, 98.3641, 98.5087
1767.15, 89.6245, 91.0311, 89.5006, 90.6845, 91.0167, 90.2188, 94.7592, 94.5956, 94.4278, 96.5357, 96.5357, 96.7128, 98.3254, 97.8853, 97.6606, 98.2006, 98.2762, 98.4421, 98.5051, 98.3858, 98.517
1767.09, 89.7188, 91.0877, 89.5859, 90.7395, 91.0861, 90.3128, 94.8065, 94.6203, 94.4933, 96.5573, 96.5573, 96.7215, 98.3466, 97.895, 97.6742, 98.1968, 98.302, 98.4432, 98.484, 98.4186, 98.5309
1767.03, 89.8127, 91.1427, 89.6748, 90.8036, 91.1574, 90.4122, 94.8561, 94.6451, 94.5674, 96.5765, 96.5765, 96.7323, 98.3645, 97.9099, 97.6854, 98.1987, 98.322, 98.4466, 98.4549, 98.4598, 98.548
1766.97, 89.9055, 91.1971, 89.7673, 90.8788, 91.2303, 90.515, 94.9082, 94.6713, 94.6455, 96.5926, 96.5926, 96.7472, 98.3768, 97.9277, 97.6933, 98.2055, 98.3358, 98.4523, 98.4198, 98.5054, 98.5647
1766.91, 89.9976, 91.2526, 89.8623, 90.9649, 91.3046, 90.6185, 94.9629, 94.7, 94.7238, 96.6054, 96.6054, 96.7669, 98.3825, 97.9456, 97.6981, 98.2167, 98.3437, 98.4606, 98.3819, 98.5503, 98.5772
1766.85, 90.09, 91.312, 89.9591, 91.06, 91.3797, 90.7199, 95.0202, 94.7315, 94.8001, 96.6152, 96.6152, 96.7906, 98.3815, 97.9612, 97.7011, 98.2312, 98.3467, 98.4719, 98.3448, 98.5897, 98.5826
1766.79, 90.1837, 91.3775, 90.0571, 91.1606, 91.4554, 90.8171, 95.0797, 94.7657, 94.8744, 96.6234, 96.6234, 96.8162, 98.3755, 97.973, 97.7042, 98.2481, 98.3459, 98.4865, 98.3125, 98.6189, 98.5792
1766.73, 90.2786, 91.4502, 90.1563, 91.2624, 91.5321, 90.9089, 95.1411, 94.8026, 94.9476, 96.6318, 96.6318, 96.841, 98.3666, 97.9807, 97.7096, 98.266, 98.3423, 98.5039, 98.2888, 98.6349, 98.5676
1766.67, 90.3743, 91.5298, 90.2576, 91.3616, 91.6106, 90.9948, 95.2033, 94.8429, 95.0209, 96.6422, 96.6422, 96.8624, 98.3575, 97.9854, 97.7197, 98.283, 98.3362, 98.5224, 98.277, 98.6362, 98.551
1766.61, 90.4693, 91.6146, 90.3615, 91.4552, 91.6919, 91.0752, 95.265, 94.8881, 95.094, 96.6557, 96.6557, 96.8793, 98.3508, 97.989, 97.7361, 98.2974, 98.3277, 98.5399, 98.2799, 98.6233, 98.5336
1766.55, 90.5623, 91.7019, 90.4685, 91.5417, 91.7769, 91.1508, 95.325, 94.9399, 95.1648, 96.6725, 96.6725, 96.892, 98.3488, 97.9932, 97.7595, 98.3082, 98.3162, 98.5538, 98.299, 98.5985, 98.5206
1766.49, 90.6527, 91.7897, 90.5784, 91.6215, 91.8655, 91.2223, 95.3819, 94.9999, 95.2301, 96.6913, 96.6913, 96.9025, 98.3531, 97.9992, 97.7891, 98.3148, 98.3018, 98.5621, 98.3344, 98.5655, 98.5159
1766.43, 90.7405, 91.8769, 90.6903, 91.6964, 91.957, 91.2908, 95.4349, 95.0688, 95.2864, 96.7103, 96.7103, 96.9135, 98.3647, 98.0073, 97.8227, 98.3181, 98.285, 98.5638, 98.3848, 98.5287, 98.5217
1766.37, 90.8266, 91.9638, 90.8024, 91.7696, 92.0502, 91.3581, 95.4836, 95.1455, 95.3316, 96.7278, 96.7278, 96.9274, 98.3841, 98.0173, 97.857, 98.3195, 98.2672, 98.5591, 98.4467, 98.4929, 98.5372
1766.31, 90.9124, 92.0516, 90.913, 91.8444, 92.1434, 91.4262, 95.528, 95.2278, 95.366, 96.7434, 96.7434, 96.9454, 98.4109, 98.0283, 97.8886, 98.3209, 98.2508, 98.5495, 98.5152, 98.4623, 98.5594
1766.25, 90.9992, 92.1421, 91.0205, 91.9241, 92.2351, 91.4975, 95.5691, 95.312, 95.3921, 96.7579, 96.7579, 96.9672, 98.4435, 98.0397, 97.9147, 98.3239, 98.2387, 98.5371, 98.584, 98.4407, 98.5837
1766.19, 91.0876, 92.2364, 91.1235, 92.0109, 92.3241, 91.5745, 95.608, 95.3942, 95.4143, 96.7735, 96.7735, 96.9911, 98.4796, 98.051, 97.9337, 98.3294, 98.2335, 98.5241, 98.6463, 98.4299, 98.6054
1766.13, 91.1775, 92.3347, 91.2215, 92.1051, 92.4099, 91.6586, 95.6468, 95.4709, 95.4371, 96.7927, 96.7927, 97.0153, 98.5158, 98.0621, 97.9459, 98.3374, 98.2366, 98.5127, 98.6954, 98.4308, 98.6206
1766.07, 91.2677, 92.4362, 91.3141, 92.2056, 92.4921, 91.7499, 95.6876, 95.5399, 95.4642, 96.8179, 96.8179, 97.0386, 98.5485, 98.0734, 97.9524, 98.3472, 98.2484, 98.5045, 98.7267, 98.4419, 98.6278
1766.01, 91.357, 92.5392, 91.4012, 92.3096, 92.5705, 91.8471, 95.7326, 95.6002, 95.4974, 96.8503, 96.8503, 97.0609, 98.5748, 98.0854, 97.955, 98.3575, 98.2674, 98.5002, 98.7377, 98.4608, 98.6276
1765.95, 91.4443, 92.6417, 91.4821, 92.4135, 92.6453, 91.9476, 95.7835, 95.6524, 95.5362, 96.8891, 96.8891, 97.0836, 98.5929, 98.0986, 97.9551, 98.3672, 98.291, 98.5004, 98.7294, 98.4832, 98.6223
1765.89, 91.529, 92.742, 91.5563, 92.5138, 92.7168, 92.0482, 95.8407, 95.6978, 95.5789, 96.9321, 96.9321, 97.1087, 98.6031, 98.1134, 97.9532, 98.3757, 98.316, 98.5046, 98.7057, 98.5048, 98.6148
1765.83, 91.6119, 92.8384, 91.6229, 92.6079, 92.7863, 92.1457, 95.9029, 95.7386, 95.6228, 96.9763, 96.9763, 97.1383, 98.6078, 98.1294, 97.949, 98.3833, 98.3394, 98.5118, 98.6726, 98.5212, 98.6076
1765.77, 91.6944, 92.9296, 91.6818, 92.6944, 92.8555, 92.2381, 95.9672, 95.7767, 95.6652, 97.0181, 97.0181, 97.1733, 98.6105, 98.1459, 97.9418, 98.3905, 98.359, 98.5204, 98.6374, 98.5291, 98.6018
1765.71, 91.7784, 93.0147, 91.7335, 92.7739, 92.9268, 92.3243, 96.0289, 95.8137, 95.7042, 97.0549, 97.0549, 97.2131, 98.6152, 98.1615, 97.9314, 98.3986, 98.3736, 98.5286, 98.6066, 98.5271, 98.5966
1765.65, 91.8657, 93.0928, 91.78, 92.8483, 93.0025, 92.4048, 96.0832, 95.8504, 95.7383, 97.0851, 97.0851, 97.2558, 98.6251, 98.1744, 97.9183, 98.4079, 98.3835, 98.5347, 98.5848, 98.5159, 98.5903
1765.59, 91.9568, 93.164, 91.8242, 92.9203, 93.0842, 92.4805, 96.1263, 95.8865, 95.767, 97.1088, 97.1088, 97.2987, 98.641, 98.1829, 97.904, 98.4182, 98.39, 98.5377, 98.5737, 98.4982, 98.5804
1765.53, 92.0512, 93.2288, 91.8701, 92.9924, 93.1715, 92.5529, 96.1565, 95.9213, 95.7907, 97.1272, 97.1272, 97.339, 98.6616, 98.186, 97.8909, 98.4281, 98.3948, 98.5382, 98.572, 98.478, 98.5652
1765.47, 92.147, 93.2889, 91.9214, 93.0665, 93.2626, 92.623, 96.1749, 95.9536, 95.8105, 97.1428, 97.1428, 97.3745, 98.6836, 98.1834, 97.8812, 98.4356, 98.4001, 98.5376, 98.5763, 98.4596, 98.5443
1765.41, 92.2414, 93.3468, 91.9809, 93.1434, 93.3543, 92.6914, 96.1856, 95.9827, 95.8287, 97.1589, 97.1589, 97.4038, 98.7028, 98.1763, 97.8764, 98.4383, 98.4077, 98.5383, 98.5814, 98.4465, 98.5191
1765.35, 92.3323, 93.4054, 92.0502, 93.2229, 93.4428, 92.7581, 96.1945, 96.0086, 95.848, 97.1789, 97.1789, 97.4263, 98.7151, 98.1669, 97.8773, 98.4349, 98.4187, 98.5425, 98.5823, 98.4403, 98.4921
1765.28, 92.4184, 93.467, 92.1292, 93.3041, 93.5251, 92.8227, 96.2073, 96.0326, 95.8713, 97.2057, 97.2057, 97.4423, 98.7183, 98.1581, 97.8841, 98.4254, 98.4337, 98.5512, 98.5746, 98.4402, 98.4665
1765.22, 92.5004, 93.5331, 92.2168, 93.386, 93.5998, 92.8848, 96.2289, 96.0569, 95.9011, 97.241, 97.241, 97.4527, 98.712, 98.1524, 97.8964, 98.4117, 98.4525, 98.5637, 98.5558, 98.4437, 98.445
1765.16, 92.5808, 93.6041, 92.3112, 93.4676, 93.6673, 92.9445, 96.2613, 96.084, 95.9384, 97.2854, 97.2854, 97.4588, 98.6983, 98.1517, 97.914, 98.3973, 98.4739, 98.5776, 98.5254, 98.4473, 98.4295
1765.1, 92.6631, 93.6793, 92.411, 93.5488, 93.7296, 93.0023, 96.3044, 96.1154, 95.9825, 97.3373, 97.3373, 97.4622, 98.6805, 98.1562, 97.9363, 98.3865, 98.4963, 98.5896, 98.4849, 98.4478, 98.4205
1765.04, 92.7512, 93.7575, 92.5156, 93.6294, 93.7887, 93.0595, 96.3554, 96.1511, 96.0312, 97.3939, 97.3939, 97.4653, 98.6624, 98.1649, 97.9624, 98.3829, 98.518, 98.5969, 98.4377, 98.4435, 98.4175
1764.98, 92.8475, 93.8378, 92.625, 93.7094, 93.8464, 93.1183, 96.4109, 96.1894, 96.0814, 97.4512, 97.4512, 97.4705, 98.6473, 98.1755, 97.9907, 98.3887, 98.537, 98.5978, 98.3886, 98.4345, 98.4195
1764.92, 92.9525, 93.9195, 92.7396, 93.7885, 93.9035, 93.181, 96.467, 96.227, 96.1301, 97.5046, 97.5046, 97.4801, 98.6373, 98.1852, 98.0182, 98.4035, 98.5518, 98.5933, 98.3428, 98.4232, 98.4258
1764.86, 93.0648, 94.0024, 92.8593, 93.8663, 93.9597, 93.2495, 96.5208, 96.2605, 96.1755, 97.5502, 97.5502, 97.4961, 98.6332, 98.1918, 98.0415, 98.425, 98.5611, 98.5857, 98.3055, 98.4131, 98.4363
1764.8, 93.1812, 94.0864, 92.9826, 93.9421, 94.0143, 93.3251, 96.5701, 96.2877, 96.2172, 97.585, 97.585, 97.5192, 98.6347, 98.1941, 98.057, 98.4494, 98.5644, 98.5789, 98.2814, 98.4077, 98.4516
1764.74, 93.2978, 94.171, 93.1067, 94.0154, 94.0673, 93.408, 96.6134, 96.3083, 96.2565, 97.6075, 97.6075, 97.549, 98.6407, 98.1919, 98.0625, 98.4727, 98.5616, 98.5762, 98.2731, 98.4098, 98.4725
1764.68, 93.411, 94.255, 93.2276, 94.0862, 94.1193, 93.4969, 96.65, 96.3244, 96.2955, 97.6176, 97.6176, 97.584, 98.6502, 98.1866, 98.0576, 98.4921, 98.5531, 98.5798, 98.2816, 98.4209, 98.4993
1764.62, 93.518, 94.3366, 93.3412, 94.1551, 94.1717, 93.5899, 96.6795, 96.3401, 96.3359, 97.6166, 97.6166, 97.6218, 98.6623, 98.1801, 98.0447, 98.5064, 98.5399, 98.59, 98.3057, 98.4405, 98.5313
1764.56, 93.6173, 94.4143, 93.4441, 94.2233, 94.2263, 93.6845, 96.7022, 96.3594, 96.3789, 97.6068, 97.6068, 97.66, 98.6765, 98.1748, 98.0276, 98.5158, 98.5236, 98.6052, 98.3422, 98.4672, 98.5663
1764.5, 93.7081, 94.4871, 93.5351, 94.2918, 94.2844, 93.7785, 96.7194, 96.3856, 96.424, 97.591, 97.591, 97.6965, 98.6923, 98.1727, 98.011, 98.5216, 98.5059, 98.623, 98.3864, 98.4987, 98.6005
1764.44, 93.79, 94.5552, 93.615, 94.361, 94.3464, 93.8704, 96.7338, 96.4197, 96.4695, 97.5719, 97.5719, 97.7302, 98.7089, 98.1754, 97.999, 98.525, 98.4892, 98.6407, 98.4334, 98.5329, 98.6294
1764.38, 93.8629, 94.6197, 93.6866, 94.4306, 94.4117, 93.9598, 96.7489, 96.4606, 96.5132, 97.5518, 97.5518, 97.7608, 98.7248, 98.1836, 97.9937, 98.5264, 98.4755, 98.6564, 98.4784, 98.5675, 98.649
1764.32, 93.9271, 94.6828, 93.754, 94.4992, 94.4792, 94.0473, 96.7686, 96.5057, 96.5527, 97.5322, 97.5322, 97.7886, 98.7379, 98.1973, 97.9952, 98.525, 98.4666, 98.6688, 98.5175, 98.6006, 98.656
1764.26, 93.9833, 94.7464, 93.8208, 94.5647, 94.5481, 94.1335, 96.7965, 96.5522, 96.5865, 97.514, 97.514, 97.8141, 98.7458, 98.2155, 98.0021, 98.5196, 98.4635, 98.6771, 98.548, 98.6305, 98.6495
1764.2, 94.0334, 94.8113, 93.8896, 94.6251, 94.6188, 94.2193, 96.8345, 96.5984, 96.6137, 97.4971, 97.4971, 97.8379, 98.7458, 98.2369, 98.012, 98.5089, 98.4659, 98.6808, 98.5687, 98.6557, 98.6306
1764.14, 94.0806, 94.8777, 93.9614, 94.6789, 94.6922, 94.3048, 96.8819, 96.6441, 96.6351, 97.481, 97.481, 97.8601, 98.7363, 98.2596, 98.0232, 98.4927, 98.4726, 98.6792, 98.5798, 98.6748, 98.6025
1764.08, 94.1286, 94.9448, 94.0355, 94.7257, 94.7701, 94.3898, 96.9361, 96.6904, 96.6522, 97.4653, 97.4653, 97.8807, 98.7169, 98.2815, 98.0349, 98.4724, 98.4811, 98.6715, 98.5825, 98.6873, 98.5695
1764.02, 94.1816, 95.0117, 94.1102, 94.7668, 94.8535, 94.4736, 96.9923, 96.739, 96.6677, 97.4507, 97.4507, 97.8998, 98.689, 98.3006, 98.0472, 98.4506, 98.4887, 98.6571, 98.5789, 98.6932, 98.5364
1763.96, 94.242, 95.0784, 94.1835, 94.8044, 94.9419, 94.5554, 97.0448, 96.7911, 96.6844, 97.4386, 97.4386, 97.918, 98.6556, 98.3155, 98.061, 98.4308, 98.4927, 98.6367, 98.5718, 98.6939, 98.5072
1763.9, 94.3104, 95.1457, 94.2536, 94.8416, 95.0333, 94.6343, 97.089, 96.8462, 96.7054, 97.4315, 97.4315, 97.9363, 98.6209, 98.3249, 98.0764, 98.4158, 98.4916, 98.6119, 98.564, 98.6912, 98.4847
1763.84, 94.3846, 95.2158, 94.3196, 94.8813, 95.1238, 94.7098, 97.1214, 96.9026, 96.7327, 97.4327, 97.4327, 97.956, 98.589, 98.3287, 98.0929, 98.4071, 98.485, 98.5858, 98.558, 98.6876, 98.4703
1763.78, 94.4604, 95.2909, 94.381, 94.9258, 95.2091, 94.7809, 97.1411, 96.9572, 96.7671, 97.4447, 97.4447, 97.9786, 98.5638, 98.3269, 98.1083, 98.4044, 98.4743, 98.5623, 98.5554, 98.6851, 98.4639
1763.72, 94.533, 95.3725, 94.4377, 94.9762, 95.2857, 94.8469, 97.1497, 97.0071, 96.8077, 97.4689, 97.4689, 98.0047, 98.5474, 98.3203, 98.1199, 98.4055, 98.4624, 98.5447, 98.5567, 98.6854, 98.4645
1763.66, 94.5978, 95.4606, 94.4899, 95.0323, 95.3519, 94.9064, 97.1505, 97.0498, 96.8518, 97.5046, 97.5046, 98.0342, 98.5407, 98.3098, 98.1247, 98.4071, 98.453, 98.5352, 98.561, 98.6889, 98.4703
1763.6, 94.6528, 95.553, 94.5373, 95.0932, 95.408, 94.9583, 97.1476, 97.0843, 96.8957, 97.5489, 97.5489, 98.0654, 98.5429, 98.2964, 98.1206, 98.4059, 98.4499, 98.5341, 98.5665, 98.6953, 98.4797
1763.54, 94.6985, 95.6456, 94.58, 95.1569, 95.4563, 95.0015, 97.1449, 97.1109, 96.9358, 97.5975, 97.5975, 98.0955, 98.5527, 98.2812, 98.1072, 98.3997, 98.4559, 98.54, 98.5705, 98.7031, 98.4911
1763.48, 94.7379, 95.7339, 94.6182, 95.2217, 95.5003, 95.036, 97.1448, 97.131, 96.9693, 97.6457, 97.6457, 98.1211, 98.5684, 98.2653, 98.0861, 98.3876, 98.4725, 98.5496, 98.5706, 98.7105, 98.5033
1763.42, 94.7757, 95.8137, 94.6527, 95.2857, 95.5427, 95.0625, 97.1482, 97.1465, 96.9958, 97.6898, 97.6898, 98.1391, 98.5885, 98.2499, 98.0604, 98.3711, 98.4987, 98.5595, 98.5647, 98.7154, 98.5159
1763.36, 94.8167, 95.8825, 94.6848, 95.3475, 95.5858, 95.0829, 97.1538, 97.1591, 97.0166, 97.7274, 97.7274, 98.1472, 98.6117, 98.2363, 98.0345, 98.353, 98.5311, 98.5664, 98.552, 98.7163, 98.5287
1763.3, 94.8642, 95.9403, 94.7166, 95.4062, 95.6302, 95.1, 97.1593, 97.1704, 97.0349, 97.7586, 97.7586, 98.145, 98.6365, 98.2256, 98.0128, 98.3372, 98.5646, 98.5684, 98.5324, 98.7119, 98.5423
1763.24, 94.9198, 95.9891, 94.7504, 95.4614, 95.6753, 95.1168, 97.1623, 97.1814, 97.0543, 97.7847, 97.7847, 98.1339, 98.6611, 98.219, 97.9987, 98.3274, 98.5934, 98.565, 98.5071, 98.702, 98.557
1763.18, 94.9824, 96.0327, 94.7887, 95.5133, 95.7201, 95.1367, 97.1611, 97.1932, 97.0779, 97.8084, 97.8084, 98.1165, 98.6831, 98.217, 97.9941, 98.3265, 98.6122, 98.557, 98.4779, 98.6871, 98.5732
1763.12, 95.0496, 96.0753, 94.8333, 95.5624, 95.7636, 95.1627, 97.1561, 97.2063, 97.1071, 97.8319, 97.8319, 98.0967, 98.7001, 98.2199, 97.9993, 98.3358, 98.6178, 98.5462, 98.4475, 98.6687, 98.5905
1763.05, 95.1179, 96.1207, 94.8855, 95.6098, 95.8052, 95.1977, 97.1495, 97.2217, 97.1414, 97.8566, 97.8566, 98.0781, 98.7099, 98.2271, 98.0123, 98.3545, 98.61, 98.5347, 98.4186, 98.6487, 98.6081
1762.99, 95.184, 96.1714, 94.946, 95.6567, 95.8452, 95.2436, 97.1451, 97.2397, 97.1786, 97.8826, 97.8826, 98.0639, 98.711, 98.2379, 98.0303, 98.38, 98.5917, 98.5241, 98.394, 98.6292, 98.6243
1762.93, 95.2455, 96.2287, 95.0142, 95.7044, 95.8843, 95.3017, 97.1471, 97.2607, 97.2156, 97.909, 97.909, 98.0561, 98.7036, 98.2513, 98.0496, 98.4085, 98.5683, 98.5153, 98.3765, 98.6115, 98.6371
1762.87, 95.3011, 96.2924, 95.0888, 95.7533, 95.9233, 95.3713, 97.1586, 97.2849, 97.2496, 97.9339, 97.9339, 98.0557, 98.6892, 98.2663, 98.0676, 98.4359, 98.5462, 98.5085, 98.3681, 98.5963, 98.6448
1762.81, 95.351, 96.3612, 95.1678, 95.8034, 95.963, 95.45, 97.1805, 97.3119, 97.2786, 97.955, 97.955, 98.0625, 98.6706, 98.2823, 98.0825, 98.4588, 98.5312, 98.5034, 98.3696, 98.5829, 98.646
1762.75, 95.396, 96.4334, 95.2487, 95.8534, 96.0034, 95.5328, 97.2111, 97.3411, 97.3015, 97.9705, 97.9705, 98.0756, 98.6508, 98.2987, 98.0942, 98.4752, 98.5266, 98.4998, 98.3803, 98.57, 98.6403
1762.69, 95.4375, 96.5065, 95.329, 95.9012, 96.0443, 95.6131, 97.2465, 97.3717, 97.3182, 97.979, 97.979, 98.0935, 98.633, 98.3155, 98.1039, 98.4852, 98.5331, 98.4977, 98.3978, 98.5556, 98.6281
1762.63, 95.4769, 96.578, 95.4062, 95.9446, 96.0846, 95.6838, 97.2819, 97.4026, 97.3292, 97.9796, 97.9796, 98.1147, 98.6193, 98.3324, 98.1136, 98.4906, 98.5482, 98.498, 98.4184, 98.5385, 98.6109
1762.57, 95.5155, 96.6451, 95.4788, 95.9814, 96.1231, 95.7386, 97.313, 97.4324, 97.3353, 97.9722, 97.9722, 98.1374, 98.6113, 98.349, 98.1248, 98.4946, 98.5678, 98.5026, 98.4375, 98.5184, 98.5904
1762.51, 95.5542, 96.7053, 95.5458, 96.0107, 96.158, 95.774, 97.3375, 97.4599, 97.3374, 97.9575, 97.9575, 98.16, 98.6098, 98.3649, 98.1384, 98.5002, 98.5871, 98.5135, 98.4511, 98.4961, 98.5684
1762.45, 95.5935, 96.7567, 95.6073, 96.0331, 96.1877, 95.79, 97.3559, 97.4838, 97.3368, 97.9366, 97.9366, 98.1809, 98.6152, 98.3797, 98.1539, 98.5102, 98.6021, 98.5324, 98.4561, 98.4736, 98.547
1762.39, 95.6334, 96.7984, 95.6636, 96.0508, 96.2112, 95.7905, 97.3711, 97.5036, 97.335, 97.9113, 97.9113, 98.1989, 98.6275, 98.3929, 98.17, 98.5258, 98.6105, 98.56, 98.4517, 98.4534, 98.5281
1762.33, 95.6736, 96.831, 95.7152, 96.0672, 96.2277, 95.782, 97.3874, 97.52, 97.3341, 97.8834, 97.8834, 98.2134, 98.6465, 98.4045, 98.1845, 98.5467, 98.6113, 98.5953, 98.4387, 98.438, 98.5135
1762.27, 95.7133, 96.8564, 95.7621, 96.0856, 96.2378, 95.772, 97.4095, 97.5343, 97.3365, 97.8553, 97.8553, 98.2243, 98.6711, 98.4146, 98.1956, 98.5715, 98.6051, 98.6353, 98.4196, 98.4294, 98.5054
1762.21, 95.7519, 96.8775, 95.8041, 96.1088, 96.243, 95.7671, 97.4408, 97.5486, 97.3444, 97.829, 97.829, 98.2323, 98.6995, 98.4235, 98.202, 98.5978, 98.5929, 98.6759, 98.3979, 98.4288, 98.5058
1762.15, 95.7887, 96.8979, 95.8404, 96.1378, 96.2454, 95.7714, 97.4827, 97.5653, 97.3595, 97.8065, 97.8065, 98.2387, 98.7291, 98.4316, 98.203, 98.6233, 98.5761, 98.7121, 98.3768, 98.4365, 98.5159
1762.09, 95.8237, 96.9207, 95.8704, 96.172, 96.2482, 95.786, 97.5344, 97.5857, 97.3822, 97.7898, 97.7898, 98.2452, 98.7561, 98.439, 98.1988, 98.6457, 98.556, 98.7397, 98.3589, 98.4519, 98.5362
1762.03, 95.857, 96.9477, 95.8943, 96.2092, 96.2544, 95.8096, 97.5931, 97.6098, 97.4118, 97.7803, 97.7803, 98.2531, 98.7772, 98.4455, 98.1897, 98.6631, 98.534, 98.7564, 98.3456, 98.4739, 98.5653
1761.97, 95.8898, 96.9796, 95.913, 96.2469, 96.2667, 95.8389, 97.6549, 97.6359, 97.4459, 97.7795, 97.7795, 98.2635, 98.7895, 98.4508, 98.1765, 98.6742, 98.512, 98.7619, 98.3375, 98.5005, 98.6001
1761.91, 95.9233, 97.0152, 95.9287, 96.2829, 96.2867, 95.8706, 97.7155, 97.6612, 97.4813, 97.788, 97.788, 98.2765, 98.7915, 98.4541, 98.1605, 98.6784, 98.4928, 98.7581, 98.3344, 98.5292, 98.6359
1761.85, 95.959, 97.0526, 95.944, 96.3166, 96.315, 95.902, 97.7709, 97.6824, 97.5146, 97.8058, 97.8058, 98.2913, 98.7839, 98.4553, 98.1433, 98.6756, 98.4791, 98.7484, 98.3357, 98.5568, 98.6675
1761.79, 95.9978, 97.0893, 95.9615, 96.3487, 96.3504, 95.9314, 97.8177, 97.697, 97.5428, 97.8314, 97.8314, 98.3061, 98.7688, 98.4541, 98.1271, 98.6662, 98.4738, 98.7368, 98.3411, 98.5802, 98.6902
1761.73, 96.0401, 97.1236, 95.9829, 96.3815, 96.3907, 95.9586, 97.8542, 97.7043, 97.564, 97.8622, 97.8622, 98.3187, 98.7497, 98.4513, 98.1146, 98.6516, 98.4786, 98.7264, 98.3499, 98.5966, 98.701
1761.67, 96.085, 97.1545, 96.0086, 96.4172, 96.4329, 95.9841, 97.8797, 97.7054, 97.578, 97.8941, 97.8941, 98.3271, 98.7307, 98.4476, 98.1082, 98.6335, 98.494, 98.7187, 98.362, 98.6047, 98.6992
1761.61, 96.131, 97.1824, 96.0374, 96.4578, 96.4739, 96.0095, 97.8947, 97.703, 97.586, 97.9223, 97.9223, 98.3295, 98.7153, 98.4436, 98.1094, 98.6139, 98.5187, 98.7138, 98.3768, 98.6046, 98.6866
1761.55, 96.1759, 97.2089, 96.0672, 96.5034, 96.5111, 96.0364, 97.9009, 97.7002, 97.5902, 97.9421, 97.9421, 98.3256, 98.7059, 98.4394, 98.1178, 98.5951, 98.55, 98.7105, 98.3939, 98.5978, 98.6665
1761.49, 96.2174, 97.236, 96.0957, 96.5526, 96.5433, 96.0667, 97.9005, 97.7002, 97.5929, 97.95, 97.95, 98.3161, 98.7038, 98.4344, 98.1314, 98.5786, 98.5842, 98.7072, 98.4126, 98.5867, 98.6427
1761.43, 96.2541, 97.2656, 96.1212, 96.6023, 96.5703, 96.1022, 97.8958, 97.7049, 97.5959, 97.9439, 97.9439, 98.3031, 98.7086, 98.4273, 98.1466, 98.566, 98.6174, 98.7024, 98.432, 98.5738, 98.619
1761.37, 96.2855, 97.2994, 96.1429, 96.649, 96.5936, 96.144, 97.889, 97.7148, 97.6001, 97.9242, 97.9242, 98.2895, 98.7189, 98.4169, 98.1591, 98.5576, 98.6458, 98.6953, 98.451, 98.5606, 98.5978
1761.31, 96.3125, 97.3379, 96.1614, 96.6889, 96.6154, 96.1924, 97.8817, 97.7293, 97.6049, 97.8934, 97.8934, 98.2781, 98.7324, 98.4025, 98.1653, 98.5536, 98.666, 98.6853, 98.4686, 98.548, 98.5803
1761.25, 96.337, 97.3807, 96.1785, 96.7196, 96.6386, 96.2465, 97.8749, 97.7469, 97.6093, 97.8557, 97.8557, 98.2714, 98.7463, 98.3847, 98.1632, 98.5536, 98.6752, 98.6727, 98.4836, 98.5355, 98.5665
1761.19, 96.3616, 97.4265, 96.1963, 96.7402, 96.6656, 96.3041, 97.8691, 97.7658, 97.612, 97.8164, 97.8164, 98.2707, 98.7583, 98.3655, 98.1527, 98.5569, 98.6718, 98.6574, 98.4949, 98.5229, 98.5556
1761.13, 96.3889, 97.4732, 96.2173, 96.7516, 96.6981, 96.3621, 97.8645, 97.7843, 97.6126, 97.7811, 97.7811, 98.276, 98.7666, 98.3478, 98.1358, 98.5625, 98.6551, 98.6396, 98.5017, 98.5101, 98.5469
1761.07, 96.4208, 97.5185, 96.2433, 96.7561, 96.7367, 96.4176, 97.861, 97.8008, 97.6118, 97.7546, 97.7546, 98.2863, 98.7705, 98.3349, 98.1154, 98.5693, 98.6262, 98.6193, 98.5036, 98.4981, 98.5398
1761.01, 96.4581, 97.5601, 96.2754, 96.7571, 96.7809, 96.4677, 97.8585, 97.8142, 97.6118, 97.7407, 97.7407, 98.3001, 98.7705, 98.329, 98.0944, 98.5762, 98.5875, 98.5971, 98.501, 98.4884, 98.5342
1760.95, 96.5003, 97.5964, 96.314, 96.7581, 96.8296, 96.5113, 97.8567, 97.8237, 97.6157, 97.7414, 97.7414, 98.3162, 98.7677, 98.3308, 98.0752, 98.5821, 98.5431, 98.5742, 98.4948, 98.4828, 98.5305
1760.89, 96.5461, 97.6264, 96.3588, 96.7626, 96.8812, 96.5483, 97.8552, 97.8293, 97.6264, 97.757, 97.757, 98.3334, 98.7634, 98.3387, 98.0589, 98.5856, 98.4982, 98.5526, 98.4865, 98.4821, 98.5293
1760.83, 96.5934, 97.6501, 96.4091, 96.7731, 96.934, 96.5801, 97.8539, 97.8315, 97.6458, 97.7861, 97.7861, 98.3512, 98.7584, 98.3492, 98.0459, 98.5858, 98.4579, 98.5351, 98.478, 98.4858, 98.5309
1760.76, 96.6398, 97.6687, 96.4638, 96.7913, 96.9861, 96.6086, 97.8528, 97.8321, 97.6741, 97.8256, 97.8256, 98.3691, 98.7526, 98.3583, 98.0361, 98.5817, 98.4269, 98.5245, 98.4715, 98.4919, 98.5355
1760.7, 96.683, 97.6838, 96.5217, 96.8173, 97.0357, 96.6354, 97.8525, 97.8334, 97.7096, 97.8713, 97.8713, 98.3865, 98.7451, 98.3626, 98.0298, 98.5727, 98.4083, 98.5228, 98.4684, 98.4974, 98.5425
1760.64, 96.7212, 97.6978, 96.5809, 96.8503, 97.0806, 96.6619, 97.8542, 97.8379, 97.7491, 97.9185, 97.9185, 98.402, 98.7346, 98.3601, 98.0279, 98.5585, 98.4034, 98.5307, 98.47, 98.4999, 98.5508
1760.58, 96.7528, 97.7133, 96.6398, 96.888, 97.119, 96.6887, 97.8594, 97.8475, 97.789, 97.9628, 97.9628, 98.4134, 98.7203, 98.3517, 98.0315, 98.5393, 98.4116, 98.5471, 98.4766, 98.4978, 98.5588
1760.52, 96.7766, 97.7323, 96.6959, 96.9277, 97.1491, 96.7158, 97.8694, 97.8632, 97.8257, 98.0004, 98.0004, 98.4189, 98.7025, 98.3402, 98.0417, 98.5159, 98.4311, 98.5691, 98.4877, 98.4918, 98.5647
1760.46, 96.7921, 97.7563, 96.7469, 96.966, 97.1699, 96.7429, 97.885, 97.8844, 97.8565, 98.0289, 98.0289, 98.4171, 98.6831, 98.3297, 98.0586, 98.4897, 98.4591, 98.5928, 98.5029, 98.4841, 98.5671
1760.4, 96.7995, 97.7861, 96.7903, 96.9999, 97.1817, 96.7696, 97.9055, 97.9089, 97.8798, 98.0476, 98.0476, 98.408, 98.6651, 98.3247, 98.0812, 98.4627, 98.4928, 98.6137, 98.5211, 98.4778, 98.5656
1760.34, 96.7997, 97.8213, 96.8243, 97.0269, 97.1863, 96.7953, 97.9288, 97.9342, 97.8949, 98.0573, 98.0573, 98.3933, 98.6522, 98.328, 98.1074, 98.4373, 98.5294, 98.6279, 98.5414, 98.4757, 98.5605
1760.28, 96.7946, 97.8603, 96.8477, 97.0457, 97.1868, 96.8193, 97.9516, 97.9573, 97.9022, 98.0599, 98.0599, 98.3761, 98.6472, 98.3409, 98.1345, 98.4161, 98.5663, 98.6324, 98.5632, 98.4797, 98.5531
1760.22, 96.7869, 97.9008, 96.8602, 97.0557, 97.1872, 96.8406, 97.9704, 97.9762, 97.9025, 98.0581, 98.0581, 98.36, 98.6519, 98.3619, 98.1596, 98.401, 98.6012, 98.6264, 98.5855, 98.4894, 98.5454
1760.16, 96.7794, 97.9398, 96.8629, 97.0579, 97.1916, 96.8582, 97.9827, 97.9904, 97.8975, 98.0544, 98.0544, 98.3484, 98.6657, 98.3881, 98.1804, 98.393, 98.6319, 98.6102, 98.6077, 98.5034, 98.5392
1760.1, 96.7752, 97.9741, 96.8577, 97.054, 97.2031, 96.8712, 97.9874, 98.0002, 97.8894, 98.0508, 98.0508, 98.3431, 98.6863, 98.4153, 98.1959, 98.3916, 98.6565, 98.5862, 98.6283, 98.5194, 98.5355
1760.04, 96.7764, 98.0012, 96.8473, 97.0464, 97.2232, 96.8791, 97.9855, 98.0074, 97.8808, 98.0491, 98.0491, 98.3443, 98.7102, 98.4393, 98.2059, 98.3951, 98.6731, 98.5579, 98.6458, 98.5349, 98.534
1759.98, 96.7847, 98.0194, 96.8346, 97.0377, 97.2516, 96.8819, 97.9798, 98.0137, 97.8741, 98.0501, 98.0501, 98.3506, 98.7332, 98.4566, 98.2109, 98.4009, 98.6805, 98.5298, 98.6583, 98.5481, 98.5335
1759.92, 96.8003, 98.0288, 96.8223, 97.0306, 97.2858, 96.8802, 97.9736, 98.0211, 97.8711, 98.0546, 98.0546, 98.3595, 98.7518, 98.4652, 98.2117, 98.4059, 98.6783, 98.5065, 98.6637, 98.5584, 98.5318
1759.86, 96.8229, 98.031, 96.8127, 97.027, 97.3221, 96.8747, 97.9707, 98.0309, 97.8721, 98.0629, 98.0629, 98.3682, 98.7633, 98.4649, 98.2086, 98.4082, 98.6666, 98.4925, 98.6604, 98.5656, 98.5267
1759.8, 96.8514, 98.0293, 96.8072, 97.0283, 97.3559, 96.8667, 97.9735, 98.0438, 97.876, 98.0752, 98.0752, 98.3744, 98.7666, 98.4571, 98.2018, 98.4066, 98.6464, 98.4909, 98.6475, 98.57, 98.517
1759.74, 96.8844, 98.028, 96.8067, 97.0348, 97.3826, 96.8568, 97.9838, 98.0603, 97.8805, 98.0918, 98.0918, 98.3767, 98.7617, 98.4444, 98.1914, 98.4017, 98.6197, 98.5033, 98.6254, 98.5723, 98.503
1759.68, 96.9202, 98.0313, 96.8111, 97.0463, 97.399, 96.8463, 98.0019, 98.0801, 97.8827, 98.1121, 98.1121, 98.3744, 98.7504, 98.4302, 98.1772, 98.3952, 98.589, 98.5285, 98.5961, 98.5729, 98.4867
1759.62, 96.9568, 98.0427, 96.8203, 97.0617, 97.4031, 96.8363, 98.0276, 98.1025, 97.8806, 98.1354, 98.1354, 98.3678, 98.7357, 98.4179, 98.16, 98.3896, 98.5575, 98.563, 98.5628, 98.5724, 98.4714
1759.56, 96.9923, 98.0641, 96.8338, 97.0801, 97.3955, 96.8286, 98.06, 98.1263, 97.8738, 98.1603, 98.1603, 98.3576, 98.7212, 98.4101, 98.1412, 98.3875, 98.5287, 98.6011, 98.5294, 98.5712, 98.4607
1759.5, 97.0246, 98.0953, 96.8513, 97.1008, 97.3785, 96.8255, 98.0974, 98.1497, 97.864, 98.1848, 98.1848, 98.3452, 98.7109, 98.4076, 98.1231, 98.3906, 98.506, 98.6362, 98.4998, 98.5695, 98.458
1759.44, 97.052, 98.1345, 96.8727, 97.1236, 97.3564, 96.8293, 98.1376, 98.1707, 97.854, 98.2068, 98.2068, 98.3322, 98.7086, 98.4098, 98.1079, 98.4002, 98.4923, 98.6621, 98.477, 98.5674, 98.4652
1759.38, 97.0737, 98.1784, 96.8981, 97.1492, 97.3338, 96.8422, 98.1774, 98.1872, 97.8473, 98.2241, 98.2241, 98.3209, 98.7165, 98.4141, 98.0974, 98.4164, 98.4895, 98.6748, 98.4624, 98.5643, 98.4823
1759.32, 97.0896, 98.2228, 96.9276, 97.1785, 97.3151, 96.865, 98.213, 98.1977, 97.8461, 98.2353, 98.2353, 98.3133, 98.7351, 98.4173, 98.0925, 98.4382, 98.4978, 98.6738, 98.4553, 98.5593, 98.5075
1759.26, 97.1013, 98.2636, 96.9613, 97.2121, 97.3034, 96.897, 98.2407, 98.2015, 97.8509, 98.2394, 98.2394, 98.3115, 98.7624, 98.4157, 98.0923, 98.464, 98.5158, 98.6617, 98.4534, 98.5511, 98.5373
1759.2, 97.1112, 98.2971, 96.9985, 97.2501, 97.3, 96.9359, 98.258, 98.1991, 97.8599, 98.2368, 98.2368, 98.3163, 98.7952, 98.4068, 98.0947, 98.4911, 98.5409, 98.6444, 98.4532, 98.5388, 98.5679
1759.14, 97.1228, 98.3205, 97.0379, 97.2916, 97.3044, 96.9781, 98.2639, 98.1921, 97.8699, 98.2284, 98.2284, 98.3273, 98.8288, 98.3896, 98.0966, 98.5167, 98.5695, 98.6288, 98.4515, 98.5225, 98.5955
1759.08, 97.1388, 98.3324, 97.0774, 97.3349, 97.3155, 97.02, 98.2598, 98.1825, 97.8772, 98.2162, 98.2162, 98.3429, 98.8592, 98.365, 98.0952, 98.5375, 98.5979, 98.6211, 98.4462, 98.5036, 98.6176
1759.02, 97.1614, 98.3326, 97.1142, 97.3773, 97.3317, 97.0582, 98.2487, 98.1724, 97.8792, 98.2028, 98.2028, 98.3598, 98.8837, 98.3352, 98.0885, 98.5513, 98.6234, 98.6253, 98.4371, 98.4847, 98.6328
1758.96, 97.191, 98.3225, 97.1455, 97.4168, 97.3524, 97.0907, 98.2345, 98.1637, 97.8746, 98.1907, 98.1907, 98.3748, 98.9014, 98.3035, 98.0763, 98.5566, 98.6443, 98.6417, 98.4258, 98.4692, 98.642
1758.9, 97.2261, 98.3051, 97.1692, 97.4517, 97.3776, 97.1168, 98.2206, 98.1571, 97.8645, 98.1826, 98.1826, 98.3848, 98.9135, 98.2737, 98.0601, 98.5538, 98.6603, 98.6677, 98.4154, 98.4602, 98.6466
1758.84, 97.2638, 98.284, 97.1845, 97.4814, 97.4081, 97.1368, 98.2092, 98.1531, 97.8509, 98.1804, 98.1804, 98.3882, 98.922, 98.2487, 98.0427, 98.5451, 98.6723, 98.6983, 98.4093, 98.4596, 98.6492
1758.78, 97.3002, 98.2637, 97.1923, 97.5061, 97.4441, 97.152, 98.2005, 98.1512, 97.8371, 98.1853, 98.1853, 98.385, 98.9291, 98.2312, 98.0274, 98.5338, 98.6818, 98.7281, 98.4099, 98.4676, 98.6516
1758.72, 97.3315, 98.2485, 97.1953, 97.5264, 97.4845, 97.1639, 98.1935, 98.1514, 97.826, 98.1973, 98.1973, 98.3771, 98.9367, 98.223, 98.0169, 98.524, 98.6902, 98.7528, 98.4176, 98.4827, 98.6546
1758.66, 97.3543, 98.2415, 97.1971, 97.5428, 97.5269, 97.1743, 98.1865, 98.1534, 97.8203, 98.2152, 98.2152, 98.3676, 98.9451, 98.2251, 98.0128, 98.5192, 98.6989, 98.7702, 98.4311, 98.5022, 98.6582
1758.6, 97.3669, 98.2445, 97.2012, 97.5547, 97.5671, 97.185, 98.1783, 98.1572, 97.8219, 98.2365, 98.2365, 98.3602, 98.954, 98.2378, 98.0157, 98.5212, 98.7084, 98.7806, 98.4468, 98.5234, 98.6607
1758.53, 97.3692, 98.2574, 97.2103, 97.5611, 97.601, 97.1978, 98.1688, 98.163, 97.8321, 98.2579, 98.2579, 98.3583, 98.9624, 98.2606, 98.0245, 98.5305, 98.7186, 98.7863, 98.4607, 98.5438, 98.6606
1758.47, 97.3626, 98.2784, 97.2247, 97.5603, 97.625, 97.214, 98.1589, 98.1705, 97.8512, 98.2755, 98.2755, 98.3641, 98.9695, 98.2918, 98.038, 98.5457, 98.7284, 98.7898, 98.4689, 98.5627, 98.6566
1758.41, 97.3502, 98.3049, 97.2429, 97.5515, 97.6374, 97.2338, 98.15, 98.1795, 97.8788, 98.286, 98.286, 98.3784, 98.9747, 98.3286, 98.055, 98.5647, 98.7366, 98.7937, 98.4691, 98.5802, 98.6488
1758.35, 97.3354, 98.3333, 97.2618, 97.535, 97.639, 97.2563, 98.1435, 98.1888, 97.9135, 98.2869, 98.2869, 98.4002, 98.9778, 98.3673, 98.0744, 98.5853, 98.7414, 98.7988, 98.4608, 98.5971, 98.639
1758.29, 97.322, 98.3608, 97.278, 97.5127, 97.6323, 97.2788, 98.1403, 98.1972, 97.9524, 98.2779, 98.2779, 98.427, 98.9782, 98.4038, 98.0954, 98.606, 98.7414, 98.8049, 98.4453, 98.6141, 98.6303
1758.23, 97.3127, 98.3848, 97.2889, 97.4884, 97.6211, 97.2977, 98.1402, 98.2032, 97.9921, 98.2606, 98.2606, 98.4553, 98.9751, 98.4346, 98.1173, 98.6259, 98.7358, 98.8103, 98.4249, 98.6308, 98.6259
1758.17, 97.3092, 98.4035, 97.2937, 97.4662, 97.6084, 97.3091, 98.1431, 98.206, 98.0288, 98.2383, 98.2383, 98.4813, 98.9669, 98.4575, 98.1393, 98.6442, 98.7249, 98.8132, 98.4027, 98.646, 98.6282
1758.11, 97.3116, 98.4159, 97.2937, 97.4501, 97.5965, 97.3107, 98.1487, 98.2047, 98.0593, 98.2153, 98.2153, 98.502, 98.9517, 98.4721, 98.1599, 98.6604, 98.71, 98.8119, 98.3808, 98.6575, 98.638
1758.05, 97.3191, 98.4215, 97.2921, 97.4424, 97.5864, 97.3025, 98.1572, 98.1998, 98.0818, 98.1962, 98.1962, 98.5152, 98.9282, 98.4801, 98.1779, 98.6731, 98.6933, 98.8056, 98.361, 98.6626, 98.6535
1757.99, 97.3301, 98.4204, 97.2927, 97.4436, 97.5779, 97.2872, 98.1696, 98.1921, 98.0961, 98.1841, 98.1841, 98.5207, 98.8964, 98.4843, 98.1922, 98.6807, 98.6775, 98.7944, 98.3447, 98.6596, 98.6714
1757.93, 97.3435, 98.4131, 97.2989, 97.4525, 97.5707, 97.2701, 98.1867, 98.1834, 98.1039, 98.1808, 98.1808, 98.5199, 98.858, 98.4878, 98.2025, 98.6817, 98.6649, 98.779, 98.3325, 98.648, 98.6875
1757.87, 97.3589, 98.4005, 97.3126, 97.4665, 97.5645, 97.257, 98.2094, 98.1762, 98.1076, 98.186, 98.186, 98.5151, 98.8166, 98.4929, 98.2095, 98.6756, 98.6566, 98.7609, 98.3256, 98.6294, 98.6985
1757.81, 97.3769, 98.3844, 97.3337, 97.4833, 97.5598, 97.2529, 98.2375, 98.173, 98.1097, 98.1979, 98.1979, 98.5093, 98.777, 98.5005, 98.2143, 98.6635, 98.6522, 98.7417, 98.3251, 98.6066, 98.7027
1757.75, 97.3987, 98.3668, 97.3606, 97.5013, 97.5574, 97.2599, 98.2698, 98.1764, 98.1121, 98.2138, 98.2138, 98.5046, 98.7439, 98.5098, 98.2184, 98.6483, 98.6501, 98.7234, 98.3317, 98.5837, 98.7006
1757.69, 97.4257, 98.3495, 97.3907, 97.52, 97.5583, 97.277, 98.3039, 98.1883, 98.1153, 98.2308, 98.2308, 98.5019, 98.721, 98.5185, 98.2226, 98.6341, 98.6476, 98.7074, 98.3453, 98.5651, 98.6947
1757.63, 97.4576, 98.3342, 97.4211, 97.5399, 97.5631, 97.3001, 98.3366, 98.2097, 98.1187, 98.2465, 98.2465, 98.5009, 98.7102, 98.5239, 98.2269, 98.625, 98.6423, 98.6951, 98.3647, 98.5545, 98.6881
1757.57, 97.4927, 98.3215, 97.4497, 97.5616, 97.5722, 97.3241, 98.3646, 98.24, 98.121, 98.2595, 98.2595, 98.5001, 98.7106, 98.524, 98.2306, 98.624, 98.6325, 98.6874, 98.3868, 98.554, 98.6835
1757.51, 97.5276, 98.311, 97.475, 97.5849, 97.5857, 97.3439, 98.3845, 98.2774, 98.1211, 98.2692, 98.2692, 98.4978, 98.7198, 98.5181, 98.2321, 98.6315, 98.6181, 98.6844, 98.4078, 98.5644, 98.6821
1757.45, 97.5576, 98.3015, 97.4965, 97.6083, 97.6038, 97.3568, 98.3942, 98.3184, 98.1182, 98.2759, 98.2759, 98.4927, 98.734, 98.5071, 98.2303, 98.6456, 98.6003, 98.6851, 98.4239, 98.5849, 98.6833
1757.39, 97.5784, 98.2916, 97.5144, 97.6294, 97.6263, 97.3629, 98.3926, 98.359, 98.1123, 98.2804, 98.2804, 98.4847, 98.7492, 98.4938, 98.2249, 98.6621, 98.5816, 98.6879, 98.4323, 98.6134, 98.6854
1757.33, 97.5876, 98.28, 97.5291, 97.6452, 97.6529, 97.3646, 98.3801, 98.3949, 98.1038, 98.2833, 98.2833, 98.4748, 98.7626, 98.4819, 98.2164, 98.6759, 98.5643, 98.6902, 98.4327, 98.6477, 98.6859
1757.27, 97.5852, 98.2664, 97.5411, 97.6534, 97.6827, 97.3655, 98.3591, 98.4222, 98.0937, 98.2854, 98.2854, 98.465, 98.7726, 98.475, 98.2064, 98.6826, 98.5505, 98.6896, 98.427, 98.6853, 98.6833
1757.21, 97.5738, 98.2519, 97.5504, 97.6534, 97.7138, 97.369, 98.3334, 98.4386, 98.0827, 98.2873, 98.2873, 98.4574, 98.7789, 98.4759, 98.1964, 98.6797, 98.5412, 98.6842, 98.4191, 98.724, 98.6772
1757.15, 97.558, 98.2383, 97.5572, 97.6462, 97.7434, 97.3767, 98.3077, 98.4429, 98.0715, 98.2889, 98.2889, 98.4536, 98.7825, 98.4853, 98.1877, 98.667, 98.5365, 98.6732, 98.4133, 98.7615, 98.669
1757.09, 97.5428, 98.2284, 97.5614, 97.6347, 97.7688, 97.388, 98.2865, 98.4362, 98.0603, 98.2901, 98.2901, 98.4545, 98.7848, 98.502, 98.1806, 98.6468, 98.5351, 98.6573, 98.4133, 98.7958, 98.6613
1757.03, 97.5323, 98.2248, 97.5629, 97.6222, 97.7877, 97.4003, 98.2733, 98.4204, 98.0497, 98.2902, 98.2902, 98.4597, 98.7869, 98.5227, 98.1748, 98.623, 98.5357, 98.639, 98.4202, 98.8245, 98.6566
1756.97, 97.5283, 98.2296, 97.5615, 97.6117, 97.7998, 97.4099, 98.2691, 98.3987, 98.0398, 98.2885, 98.2885, 98.4679, 98.7889, 98.5428, 98.1696, 98.5997, 98.5367, 98.6213, 98.4329, 98.8448, 98.6572
1756.91, 97.5306, 98.2436, 97.5576, 97.6047, 97.8064, 97.4135, 98.2728, 98.3741, 98.0313, 98.2845, 98.2845, 98.4772, 98.7907, 98.5578, 98.1646, 98.5799, 98.5369, 98.6074, 98.4481, 98.8546, 98.6637
1756.85, 97.5375, 98.266, 97.552, 97.6009, 97.8105, 97.409, 98.2809, 98.3493, 98.0252, 98.278, 98.278, 98.4857, 98.791, 98.5642, 98.1604, 98.5646, 98.5359, 98.5998, 98.462, 98.8522, 98.6754
1756.79, 97.5465, 98.2945, 97.546, 97.5987, 97.8157, 97.3966, 98.2894, 98.3257, 98.0225, 98.2693, 98.2693, 98.4915, 98.7887, 98.5605, 98.1585, 98.553, 98.5341, 98.5991, 98.4714, 98.8375, 98.69
1756.73, 97.5555, 98.3256, 97.5419, 97.5959, 97.8245, 97.3782, 98.2945, 98.3037, 98.0242, 98.2593, 98.2593, 98.4936, 98.7832, 98.5475, 98.1611, 98.5423, 98.5326, 98.6041, 98.475, 98.8125, 98.705
1756.67, 97.5634, 98.3553, 97.5422, 97.5912, 97.8375, 97.357, 98.2943, 98.2823, 98.0308, 98.2489, 98.2489, 98.4916, 98.7745, 98.528, 98.1703, 98.5295, 98.533, 98.6121, 98.4738, 98.7804, 98.7179
1756.61, 97.5704, 98.3794, 97.5492, 97.5842, 97.853, 97.3369, 98.2894, 98.2604, 98.0421, 98.2389, 98.2389, 98.4861, 98.7639, 98.5056, 98.1872, 98.5124, 98.5367, 98.6197, 98.4702, 98.7457, 98.7273
1756.55, 97.5769, 98.3944, 97.5644, 97.5764, 97.8677, 97.3216, 98.2818, 98.2367, 98.0568, 98.2298, 98.2298, 98.4783, 98.7533, 98.4837, 98.211, 98.4905, 98.5448, 98.6238, 98.4667, 98.7125, 98.7325
1756.49, 97.5837, 98.3979, 97.5878, 97.5705, 97.8781, 97.3137, 98.2744, 98.2107, 98.0728, 98.2215, 98.2215, 98.4702, 98.7448, 98.4641, 98.2397, 98.4651, 98.5572, 98.6225, 98.4652, 98.6839, 98.7343
1756.43, 97.5911, 98.3891, 97.6175, 97.5694, 97.8818, 97.3147, 98.2696, 98.1834, 98.0869, 98.2138, 98.2138, 98.4635, 98.7405, 98.4474, 98.2693, 98.4394, 98.5724, 98.6157, 98.4657, 98.6612, 98.7335
1756.37, 97.599, 98.3691, 97.6504, 97.5754, 97.8785, 97.3246, 98.2688, 98.1569, 98.0958, 98.2066, 98.2066, 98.4599, 98.7416, 98.432, 98.2957, 98.4169, 98.5881, 98.6049, 98.4667, 98.6436, 98.731
1756.31, 97.6069, 98.3407, 97.6825, 97.5898, 97.8701, 97.3426, 98.272, 98.1343, 98.0968, 98.2003, 98.2003, 98.4601, 98.7489, 98.416, 98.3149, 98.4005, 98.6009, 98.5924, 98.466, 98.629, 98.7269
1756.24, 97.6149, 98.3081, 97.7099, 97.6121, 97.86, 97.3668, 98.2789, 98.1189, 98.0886, 98.1961, 98.1961, 98.4636, 98.7619, 98.3974, 98.324, 98.3914, 98.6079, 98.5811, 98.4615, 98.6147, 98.7206
1756.18, 97.6231, 98.2761, 97.7304, 97.6405, 97.852, 97.3946, 98.2887, 98.1137, 98.0719, 98.1953, 98.1953, 98.4688, 98.7798, 98.3748, 98.3219, 98.389, 98.6071, 98.5727, 98.4522, 98.5983, 98.7107
1756.12, 97.632, 98.2496, 97.7431, 97.6725, 97.849, 97.4231, 98.3017, 98.12, 98.0492, 98.199, 98.199, 98.4732, 98.8013, 98.3484, 98.3096, 98.3913, 98.5981, 98.5681, 98.4389, 98.5787, 98.6956
1756.06, 97.6423, 98.2317, 97.7494, 97.7051, 97.8527, 97.4498, 98.3185, 98.1378, 98.0248, 98.2072, 98.2072, 98.4743, 98.8247, 98.3196, 98.2894, 98.3958, 98.5823, 98.5671, 98.4235, 98.556, 98.674
1756, 97.6541, 98.2239, 97.7518, 97.7357, 97.8633, 97.4722, 98.3395, 98.1656, 98.0033, 98.2187, 98.2187, 98.4701, 98.8475, 98.2909, 98.2651, 98.4008, 98.5621, 98.5688, 98.4088, 98.532, 98.6455
1755.94, 97.6673, 98.2248, 97.7533, 97.7619, 97.8798, 97.4889, 98.3643, 98.2002, 97.9882, 98.2313, 98.2313, 98.4597, 98.8672, 98.2651, 98.2403, 98.4056, 98.5408, 98.5723, 98.3977, 98.5091, 98.6112
1755.88, 97.6812, 98.2306, 97.7562, 97.7822, 97.9008, 97.4992, 98.391, 98.2385, 97.9813, 98.242, 98.242, 98.4436, 98.8804, 98.2452, 98.2187, 98.4112, 98.5212, 98.5776, 98.3926, 98.4903, 98.5731
1755.82, 97.6952, 98.2363, 97.762, 97.7955, 97.9244, 97.5034, 98.4163, 98.2769, 97.982, 98.2486, 98.2486, 98.4235, 98.8843, 98.2339, 98.2025, 98.419, 98.5056, 98.5853, 98.3949, 98.4782, 98.5343
1755.76, 97.7086, 98.2363, 97.7707, 97.8015, 97.9489, 97.5025, 98.4367, 98.3128, 97.9881, 98.25, 98.25, 98.4018, 98.8763, 98.2334, 98.1927, 98.4297, 98.4951, 98.5966, 98.4052, 98.4744, 98.498
1755.7, 97.7214, 98.2265, 97.7815, 97.8005, 97.9722, 97.4982, 98.4492, 98.3443, 97.9962, 98.2467, 98.2467, 98.3808, 98.8557, 98.2449, 98.1889, 98.4429, 98.4902, 98.6125, 98.4229, 98.4798, 98.467
1755.64, 97.7336, 98.2053, 97.7931, 97.7934, 97.992, 97.4919, 98.4526, 98.3704, 98.0032, 98.2403, 98.2403, 98.3627, 98.8238, 98.2685, 98.1893, 98.456, 98.4907, 98.6332, 98.4466, 98.4935, 98.4433
1755.58, 97.7453, 98.174, 97.8042, 97.7818, 98.006, 97.4852, 98.4477, 98.3913, 98.0077, 98.2327, 98.2327, 98.3488, 98.7842, 98.303, 98.1917, 98.4657, 98.4963, 98.6576, 98.4738, 98.5136, 98.428
1755.52, 97.7563, 98.1369, 97.8138, 97.768, 98.0123, 97.4793, 98.4369, 98.4075, 98.0096, 98.2255, 98.2255, 98.3396, 98.7425, 98.3457, 98.1939, 98.4679, 98.5063, 98.6832, 98.5011, 98.5369, 98.4211
1755.46, 97.7658, 98.1, 97.8216, 97.7543, 98.0096, 97.475, 98.423, 98.42, 98.0106, 98.2189, 98.2189, 98.3348, 98.7049, 98.3927, 98.1945, 98.4603, 98.5194, 98.707, 98.5246, 98.5596, 98.4222
1755.4, 97.7727, 98.0694, 97.8274, 97.743, 97.9981, 97.4731, 98.4079, 98.4301, 98.0125, 98.2126, 98.2126, 98.3341, 98.6774, 98.4396, 98.1934, 98.4421, 98.534, 98.7261, 98.5406, 98.578, 98.4303
1755.34, 97.7761, 98.0498, 97.8316, 97.7359, 97.9795, 97.4744, 98.3923, 98.4385, 98.017, 98.2059, 98.2059, 98.3366, 98.6644, 98.4824, 98.1914, 98.4151, 98.5475, 98.7385, 98.5465, 98.5895, 98.4443
1755.28, 97.7757, 98.0436, 97.8347, 97.7344, 97.9563, 97.4798, 98.3758, 98.4455, 98.0246, 98.1984, 98.1984, 98.3418, 98.668, 98.5182, 98.1905, 98.3825, 98.5576, 98.7438, 98.5421, 98.5927, 98.4626
1755.22, 97.7721, 98.05, 97.8376, 97.7388, 97.9316, 97.4901, 98.3575, 98.4507, 98.0346, 98.1913, 98.1913, 98.3494, 98.6878, 98.5459, 98.193, 98.3482, 98.5623, 98.7431, 98.5293, 98.5881, 98.4836
1755.16, 97.7667, 98.0661, 97.8412, 97.7486, 97.9085, 97.5054, 98.3373, 98.453, 98.0451, 98.1867, 98.1867, 98.3598, 98.7215, 98.5656, 98.2008, 98.3159, 98.5609, 98.7384, 98.5121, 98.5777, 98.5052
1755.1, 97.7616, 98.0874, 97.8467, 97.763, 97.8892, 97.5255, 98.3166, 98.4509, 98.0542, 98.187, 98.187, 98.3737, 98.7647, 98.5789, 98.2146, 98.288, 98.5541, 98.7323, 98.4954, 98.5643, 98.5254
1755.04, 97.7586, 98.1094, 97.855, 97.78, 97.8753, 97.5492, 98.2983, 98.4427, 98.0605, 98.1946, 98.1946, 98.3923, 98.8126, 98.5871, 98.2339, 98.2664, 98.5438, 98.7271, 98.4838, 98.5509, 98.5425
1754.98, 97.7593, 98.1284, 97.8664, 97.7979, 97.8675, 97.5748, 98.2857, 98.4273, 98.0633, 98.21, 98.21, 98.4167, 98.8598, 98.5911, 98.2565, 98.2522, 98.5327, 98.7247, 98.4795, 98.5396, 98.5554
1754.92, 97.7643, 98.1428, 97.8806, 97.8146, 97.8661, 97.5999, 98.2816, 98.4043, 98.0634, 98.2323, 98.2323, 98.4475, 98.9011, 98.5905, 98.2791, 98.2469, 98.5231, 98.7261, 98.4822, 98.5312, 98.5641
1754.86, 97.7737, 98.1522, 97.896, 97.8284, 97.8706, 97.6227, 98.2872, 98.3747, 98.0619, 98.2589, 98.2589, 98.484, 98.9315, 98.5845, 98.2981, 98.2517, 98.5161, 98.732, 98.4889, 98.5259, 98.5696
1754.8, 97.787, 98.1577, 97.9106, 97.8383, 97.8804, 97.6419, 98.3013, 98.3403, 98.0606, 98.2866, 98.2866, 98.5244, 98.9471, 98.5715, 98.3102, 98.2681, 98.5114, 98.7426, 98.4952, 98.5229, 98.5735
1754.74, 97.8036, 98.161, 97.9218, 97.8441, 97.8943, 97.6571, 98.3211, 98.3038, 98.061, 98.3126, 98.3126, 98.5652, 98.945, 98.5509, 98.313, 98.2963, 98.5075, 98.7576, 98.4967, 98.522, 98.5776
1754.68, 97.8227, 98.1637, 97.9275, 97.8465, 97.9104, 97.6689, 98.3428, 98.268, 98.0641, 98.3348, 98.3348, 98.6026, 98.9246, 98.523, 98.3063, 98.335, 98.5026, 98.7762, 98.4906, 98.5235, 98.5832
1754.62, 97.8432, 98.1669, 97.9262, 97.8467, 97.9269, 97.6781, 98.3628, 98.2354, 98.0707, 98.3527, 98.3527, 98.6327, 98.8877, 98.4893, 98.291, 98.3811, 98.4948, 98.7965, 98.4766, 98.5281, 98.5907
1754.56, 97.8637, 98.1713, 97.918, 97.8463, 97.9421, 97.6857, 98.3782, 98.2079, 98.0815, 98.3664, 98.3664, 98.6527, 98.8385, 98.4524, 98.2698, 98.4302, 98.4832, 98.8159, 98.4569, 98.537, 98.5996
1754.5, 97.8822, 98.1765, 97.904, 97.8463, 97.9547, 97.6918, 98.3874, 98.1866, 98.0968, 98.3762, 98.3762, 98.6618, 98.7835, 98.415, 98.2457, 98.4774, 98.468, 98.8312, 98.4356, 98.551, 98.6086
1754.44, 97.8964, 98.1815, 97.8862, 97.8473, 97.9642, 97.6964, 98.39, 98.1719, 98.1168, 98.3822, 98.3822, 98.6612, 98.7299, 98.38, 98.2211, 98.519, 98.4503, 98.839, 98.4171, 98.5699, 98.616
1754.38, 97.9043, 98.1852, 97.8676, 97.8487, 97.971, 97.6987, 98.3858, 98.1635, 98.1412, 98.3842, 98.3842, 98.6542, 98.6846, 98.3499, 98.1977, 98.5529, 98.4314, 98.8372, 98.4055, 98.5921, 98.6204
1754.32, 97.905, 98.1859, 97.8506, 97.8496, 97.9759, 97.698, 98.3749, 98.1603, 98.1689, 98.3819, 98.3819, 98.6444, 98.6529, 98.3264, 98.1752, 98.5795, 98.4128, 98.8251, 98.4033, 98.6152, 98.6209
1754.26, 97.8992, 98.1823, 97.8377, 97.8486, 97.9797, 97.6941, 98.3578, 98.1609, 98.1979, 98.3753, 98.3753, 98.6356, 98.6371, 98.3111, 98.1524, 98.6004, 98.396, 98.8043, 98.4111, 98.6362, 98.6174
1754.2, 97.889, 98.1739, 97.8299, 97.8453, 97.9831, 97.6874, 98.336, 98.1636, 98.225, 98.3651, 98.3651, 98.6304, 98.6367, 98.3049, 98.1275, 98.6175, 98.3817, 98.7779, 98.4281, 98.6524, 98.6105
1754.14, 97.8778, 98.1611, 97.8279, 97.8402, 97.9861, 97.6788, 98.3115, 98.1668, 98.2468, 98.3527, 98.3527, 98.6294, 98.6489, 98.3084, 98.0989, 98.632, 98.3709, 98.7505, 98.4519, 98.6621, 98.601
1754.08, 97.869, 98.1458, 97.8307, 97.8352, 97.9882, 97.6691, 98.2881, 98.1691, 98.26, 98.3399, 98.3399, 98.6318, 98.669, 98.3211, 98.0663, 98.6441, 98.3637, 98.7266, 98.4794, 98.6651, 98.5902
1754.01, 97.865, 98.1307, 97.837, 97.8326, 97.9887, 97.6586, 98.2698, 98.1702, 98.2625, 98.3282, 98.3282, 98.6357, 98.6922, 98.3412, 98.0311, 98.6522, 98.3596, 98.7094, 98.5073, 98.6621, 98.5788
1753.95, 97.8666, 98.119, 97.8447, 97.835, 97.9869, 97.6473, 98.2606, 98.1705, 98.2542, 98.3181, 98.3181, 98.6389, 98.7143, 98.366, 97.9961, 98.6545, 98.3571, 98.7006, 98.5325, 98.6552, 98.5678
1753.89, 97.873, 98.1131, 97.8516, 97.844, 97.9825, 97.6343, 98.2632, 98.1714, 98.2372, 98.3095, 98.3095, 98.6398, 98.7326, 98.3912, 97.965, 98.6499, 98.3538, 98.6996, 98.5523, 98.6467, 98.5573
1753.83, 97.8817, 98.1142, 97.8559, 97.8597, 97.9754, 97.6189, 98.2781, 98.1749, 98.2154, 98.3014, 98.3014, 98.6378, 98.7457, 98.4125, 97.9416, 98.6383, 98.3464, 98.7041, 98.5656, 98.639, 98.5474
1753.77, 97.8902, 98.1215, 97.8568, 97.8804, 97.9659, 97.6007, 98.3038, 98.1828, 98.1933, 98.2928, 98.2928, 98.6333, 98.7535, 98.4261, 97.9282, 98.6213, 98.3321, 98.7109, 98.5722, 98.6341, 98.5383
1753.71, 97.8962, 98.1327, 97.8543, 97.9027, 97.9546, 97.5804, 98.3368, 98.1963, 98.1753, 98.283, 98.283, 98.6274, 98.7567, 98.4295, 97.9259, 98.6012, 98.3094, 98.7169, 98.5735, 98.6336, 98.5298
1753.65, 97.8987, 98.1448, 97.8496, 97.923, 97.9423, 97.5596, 98.3727, 98.215, 98.1635, 98.2719, 98.2719, 98.6215, 98.7565, 98.4224, 97.9335, 98.5805, 98.2788, 98.7199, 98.5718, 98.6383, 98.5222
1753.59, 97.898, 98.1547, 97.8448, 97.9375, 97.9305, 97.5408, 98.4075, 98.2373, 98.158, 98.2602, 98.2602, 98.6169, 98.754, 98.4063, 97.9486, 98.5607, 98.2438, 98.7189, 98.5696, 98.6481, 98.5162
1753.53, 97.8954, 98.1612, 97.8421, 97.9441, 97.9213, 97.5263, 98.4381, 98.2602, 98.1563, 98.2486, 98.2486, 98.614, 98.7504, 98.3841, 97.9681, 98.5421, 98.2099, 98.7141, 98.5688, 98.662, 98.5127
1753.47, 97.8924, 98.1645, 97.8433, 97.9426, 97.9168, 97.5177, 98.4627, 98.2803, 98.1544, 98.2381, 98.2381, 98.6125, 98.7465, 98.3595, 97.9889, 98.524, 98.1832, 98.7067, 98.5702, 98.6776, 98.5133
1753.41, 97.8905, 98.1668, 97.8492, 97.9343, 97.9194, 97.5156, 98.4802, 98.2942, 98.1484, 98.2293, 98.2293, 98.6119, 98.7431, 98.3359, 98.0087, 98.5054, 98.1692, 98.698, 98.5733, 98.6921, 98.5193
1753.35, 97.8904, 98.1707, 97.8595, 97.9223, 97.9305, 97.5193, 98.4906, 98.299, 98.1359, 98.2228, 98.2228, 98.6111, 98.7409, 98.3162, 98.0265, 98.4858, 98.1711, 98.6891, 98.5763, 98.7019, 98.5315
1753.29, 97.8925, 98.1785, 97.8723, 97.91, 97.9501, 97.5267, 98.4936, 98.2938, 98.1167, 98.2188, 98.2188, 98.6091, 98.7406, 98.3023, 98.0426, 98.466, 98.1887, 98.6805, 98.5775, 98.7038, 98.5499
1753.23, 97.8969, 98.1912, 97.8852, 97.9007, 97.9766, 97.5356, 98.4891, 98.2788, 98.0933, 98.2177, 98.2177, 98.6053, 98.7426, 98.295, 98.0578, 98.448, 98.2188, 98.6719, 98.575, 98.6956, 98.5731
1753.17, 97.9038, 98.2079, 97.8954, 97.8967, 98.0066, 97.5435, 98.477, 98.2563, 98.0699, 98.2196, 98.2196, 98.599, 98.747, 98.2945, 98.0738, 98.4347, 98.256, 98.6624, 98.5683, 98.6765, 98.5985
1753.11, 97.9134, 98.2267, 97.9008, 97.8987, 98.0362, 97.5488, 98.4574, 98.2299, 98.0514, 98.2243, 98.2243, 98.5898, 98.7538, 98.3006, 98.0917, 98.4286, 98.2943, 98.6513, 98.5578, 98.6474, 98.6229
1753.05, 97.926, 98.2449, 97.9002, 97.906, 98.0613, 97.5504, 98.4314, 98.2041, 98.0416, 98.2305, 98.2305, 98.5774, 98.7625, 98.3123, 98.1121, 98.431, 98.3289, 98.6379, 98.5451, 98.6108, 98.6428
1752.99, 97.9413, 98.2605, 97.894, 97.9167, 98.0793, 97.5484, 98.4008, 98.1837, 98.0426, 98.2367, 98.2367, 98.5617, 98.7723, 98.3288, 98.1347, 98.4416, 98.3568, 98.6223, 98.5319, 98.5703, 98.6555
1752.93, 97.9583, 98.2723, 97.8837, 97.9283, 98.0893, 97.5434, 98.3684, 98.1729, 98.0543, 98.2403, 98.2403, 98.5431, 98.782, 98.3488, 98.1582, 98.4579, 98.3776, 98.6048, 98.5199, 98.5301, 98.66
1752.87, 97.975, 98.2807, 97.8718, 97.9382, 98.0925, 97.5365, 98.3371, 98.174, 98.0745, 98.2396, 98.2396, 98.5231, 98.79, 98.3711, 98.1807, 98.4765, 98.3931, 98.5865, 98.5105, 98.4937, 98.6565
1752.81, 97.989, 98.287, 97.8611, 97.9445, 98.0914, 97.529, 98.3095, 98.1873, 98.1002, 98.2333, 98.2333, 98.5037, 98.7949, 98.3941, 98.1998, 98.4931, 98.406, 98.568, 98.5044, 98.4643, 98.6468
1752.75, 97.9975, 98.2923, 97.8536, 97.9465, 98.0892, 97.5218, 98.288, 98.2103, 98.1283, 98.2222, 98.2222, 98.4883, 98.7951, 98.4162, 98.2136, 98.5045, 98.4193, 98.5499, 98.5021, 98.4438, 98.6336
1752.69, 97.9988, 98.2975, 97.8505, 97.9446, 98.0885, 97.5156, 98.2735, 98.2385, 98.1555, 98.2085, 98.2085, 98.4799, 98.7895, 98.4358, 98.2211, 98.5087, 98.4346, 98.5323, 98.5042, 98.4331, 98.6193
1752.63, 97.9924, 98.3025, 97.8519, 97.9403, 98.091, 97.5103, 98.2664, 98.2666, 98.1792, 98.1956, 98.1956, 98.4814, 98.778, 98.4512, 98.2223, 98.5054, 98.4524, 98.5153, 98.511, 98.432, 98.6058
1752.57, 97.9791, 98.3064, 97.8562, 97.9359, 98.097, 97.5055, 98.2661, 98.2897, 98.197, 98.1869, 98.1869, 98.4941, 98.7612, 98.4609, 98.2185, 98.4959, 98.4712, 98.4986, 98.5228, 98.4393, 98.5937
1752.51, 97.9614, 98.308, 97.8615, 97.9339, 98.1057, 97.5004, 98.2719, 98.3047, 98.2065, 98.1846, 98.1846, 98.5169, 98.7409, 98.4634, 98.2118, 98.4824, 98.488, 98.4827, 98.5392, 98.453, 98.583
1752.45, 97.9421, 98.3062, 97.8656, 97.9361, 98.1149, 97.4946, 98.2826, 98.3105, 98.2061, 98.1892, 98.1892, 98.547, 98.7197, 98.4585, 98.2046, 98.4673, 98.4993, 98.4685, 98.5589, 98.4704, 98.5727
1752.39, 97.9241, 98.3006, 97.867, 97.9437, 98.1226, 97.4881, 98.2974, 98.3088, 98.1948, 98.1992, 98.1992, 98.5794, 98.7005, 98.4467, 98.1991, 98.4529, 98.5016, 98.4575, 98.5795, 98.4885, 98.562
1752.33, 97.9093, 98.2917, 97.8654, 97.9564, 98.1265, 97.482, 98.3151, 98.3019, 98.173, 98.2115, 98.2115, 98.609, 98.6857, 98.4298, 98.1962, 98.4404, 98.4927, 98.451, 98.5978, 98.5043, 98.5503
1752.27, 97.8984, 98.2805, 97.8616, 97.9729, 98.1253, 97.4777, 98.3342, 98.2927, 98.1428, 98.2229, 98.2229, 98.6313, 98.6773, 98.4106, 98.1958, 98.4303, 98.472, 98.45, 98.6103, 98.5154, 98.5372
1752.21, 97.8913, 98.2685, 97.8576, 97.991, 98.1182, 97.4768, 98.353, 98.2826, 98.1079, 98.2307, 98.2307, 98.6434, 98.6754, 98.392, 98.1967, 98.4224, 98.4417, 98.4542, 98.6136, 98.5204, 98.5233
1752.15, 97.8875, 98.2571, 97.8561, 98.0082, 98.106, 97.4804, 98.3689, 98.2719, 98.0724, 98.2337, 98.2337, 98.6447, 98.6793, 98.3766, 98.1968, 98.4158, 98.4061, 98.4624, 98.6053, 98.5193, 98.5093
1752.09, 97.8868, 98.2474, 97.8594, 98.0223, 98.0902, 97.4883, 98.3794, 98.2598, 98.0401, 98.2327, 98.2327, 98.6365, 98.6867, 98.3657, 98.194, 98.4101, 98.3713, 98.4722, 98.5844, 98.5132, 98.4964
1752.03, 97.8896, 98.2403, 97.8691, 98.0318, 98.0733, 97.4987, 98.3823, 98.2459, 98.0133, 98.2297, 98.2297, 98.6216, 98.695, 98.3589, 98.1868, 98.4046, 98.3439, 98.4809, 98.5515, 98.5044, 98.4861
1751.97, 97.8973, 98.2362, 97.8854, 98.0361, 98.0578, 97.5094, 98.3762, 98.2307, 97.9923, 98.2272, 98.2272, 98.603, 98.7017, 98.3548, 98.1747, 98.3997, 98.3298, 98.4861, 98.5086, 98.4955, 98.4801
1751.91, 97.9114, 98.2354, 97.9074, 98.036, 98.0461, 97.5174, 98.3614, 98.2166, 97.9756, 98.2275, 98.2275, 98.5834, 98.7051, 98.3512, 98.1581, 98.3957, 98.3329, 98.4864, 98.4592, 98.4887, 98.48
1751.85, 97.9332, 98.2381, 97.9328, 98.0329, 98.0391, 97.5209, 98.3394, 98.2071, 97.9609, 98.2316, 98.2316, 98.5644, 98.7044, 98.3466, 98.1387, 98.3939, 98.3541, 98.4822, 98.4077, 98.4854, 98.4871
1751.79, 97.9626, 98.244, 97.9591, 98.0287, 98.0367, 97.5199, 98.3133, 98.206, 97.9461, 98.2393, 98.2393, 98.5468, 98.7002, 98.3411, 98.1183, 98.3954, 98.3913, 98.4749, 98.3591, 98.4859, 98.5021
1751.72, 97.9982, 98.253, 97.9838, 98.0256, 98.0375, 97.5161, 98.2865, 98.2159, 97.9302, 98.2489, 98.2489, 98.5307, 98.6934, 98.3362, 98.0989, 98.4013, 98.4395, 98.4673, 98.3182, 98.4898, 98.5245
1751.66, 98.0366, 98.2641, 98.0051, 98.0253, 98.0393, 97.5127, 98.262, 98.237, 97.9136, 98.2579, 98.2579, 98.5156, 98.6853, 98.3348, 98.082, 98.4123, 98.4922, 98.4619, 98.2891, 98.4959, 98.5523
1751.6, 98.0739, 98.2763, 98.022, 98.0286, 98.04, 97.5135, 98.2416, 98.2671, 97.898, 98.2639, 98.2639, 98.501, 98.6769, 98.3401, 98.0683, 98.4288, 98.5422, 98.4606, 98.2742, 98.5031, 98.5825
1751.54, 98.1062, 98.2882, 98.0343, 98.036, 98.0381, 97.5215, 98.2258, 98.3018, 97.8852, 98.265, 98.265, 98.486, 98.6683, 98.3542, 98.0579, 98.4499, 98.5832, 98.4639, 98.2741, 98.5102, 98.611
1751.48, 98.131, 98.2984, 98.0425, 98.0468, 98.0332, 97.5383, 98.2135, 98.3363, 97.8768, 98.2607, 98.2607, 98.47, 98.659, 98.3771, 98.0502, 98.4743, 98.6105, 98.4707, 98.2869, 98.5164, 98.6341
1751.42, 98.1478, 98.3061, 98.0474, 98.0597, 98.0259, 97.5633, 98.2035, 98.3662, 97.8733, 98.2523, 98.2523, 98.4522, 98.6483, 98.4065, 98.0443, 98.4999, 98.6222, 98.4787, 98.3091, 98.521, 98.6487
1751.36, 98.1582, 98.3111, 98.0496, 98.0733, 98.0175, 97.5947, 98.1947, 98.3887, 97.8743, 98.2425, 98.2425, 98.4325, 98.6355, 98.4379, 98.0393, 98.5243, 98.6188, 98.4853, 98.3361, 98.5236, 98.6534
1751.3, 98.165, 98.3139, 98.0499, 98.086, 98.0093, 97.6293, 98.1871, 98.4031, 97.8792, 98.2348, 98.2348, 98.4114, 98.6207, 98.4663, 98.0346, 98.5453, 98.6029, 98.4886, 98.3635, 98.5235, 98.6487
1751.24, 98.1712, 98.3163, 98.0487, 98.0963, 98.0024, 97.6642, 98.1819, 98.4096, 97.8872, 98.2327, 98.2327, 98.3905, 98.6044, 98.4871, 98.0299, 98.5611, 98.5785, 98.488, 98.3881, 98.5202, 98.6361
1751.18, 98.1783, 98.3196, 98.0468, 98.1036, 97.9973, 97.6973, 98.1807, 98.4088, 97.8985, 98.2383, 98.2383, 98.3724, 98.5879, 98.4971, 98.0249, 98.5709, 98.5496, 98.4849, 98.4089, 98.5136, 98.6176
1751.12, 98.1864, 98.3255, 98.0449, 98.1076, 97.9939, 97.7273, 98.1846, 98.4008, 97.913, 98.2517, 98.2517, 98.3599, 98.5727, 98.4956, 98.0192, 98.5744, 98.5197, 98.4822, 98.4264, 98.5037, 98.595
1751.06, 98.1935, 98.3345, 98.0441, 98.1087, 97.9917, 97.7538, 98.1939, 98.3851, 97.9309, 98.2711, 98.2711, 98.3556, 98.5595, 98.4834, 98.0123, 98.5719, 98.4911, 98.4835, 98.4422, 98.4917, 98.5688
1751, 98.1967, 98.3461, 98.0455, 98.1078, 97.9904, 97.7768, 98.2074, 98.3613, 97.9513, 98.2925, 98.2925, 98.3608, 98.5484, 98.4627, 98.0033, 98.5639, 98.4646, 98.492, 98.458, 98.4787, 98.5391
1750.94, 98.1933, 98.3589, 98.0505, 98.106, 97.9896, 97.796, 98.2226, 98.3299, 97.9723, 98.3111, 98.3111, 98.3754, 98.5385, 98.4363, 97.9912, 98.5508, 98.4403, 98.5091, 98.4746, 98.4667, 98.5058
1750.88, 98.1818, 98.3704, 98.0596, 98.1047, 97.9889, 97.8111, 98.2372, 98.2931, 97.9912, 98.3223, 98.3223, 98.3973, 98.5281, 98.4071, 97.9754, 98.5327, 98.4176, 98.5342, 98.4915, 98.457, 98.4691
1750.82, 98.1621, 98.3782, 98.0731, 98.1049, 97.988, 97.8212, 98.2495, 98.2543, 98.0052, 98.3231, 98.3231, 98.4231, 98.5154, 98.3775, 97.9561, 98.5097, 98.3961, 98.564, 98.5069, 98.4506, 98.4306
1750.76, 98.1362, 98.3806, 98.0904, 98.1071, 97.9867, 97.8256, 98.2598, 98.2182, 98.0123, 98.3125, 98.3125, 98.4489, 98.4992, 98.3498, 97.9346, 98.4821, 98.376, 98.5938, 98.5185, 98.4476, 98.3927
1750.7, 98.1073, 98.3767, 98.1105, 98.1109, 97.9851, 97.8234, 98.2696, 98.1893, 98.0123, 98.2918, 98.2918, 98.4715, 98.4795, 98.3256, 97.9133, 98.4507, 98.3583, 98.6178, 98.524, 98.4472, 98.3587
1750.64, 98.0788, 98.3669, 98.1317, 98.1149, 97.9839, 97.8142, 98.2816, 98.1707, 98.0066, 98.264, 98.264, 98.4883, 98.4579, 98.3061, 97.8949, 98.4171, 98.3446, 98.6317, 98.5219, 98.4482, 98.3318
1750.58, 98.054, 98.3524, 98.1524, 98.117, 97.9845, 97.7981, 98.2981, 98.1634, 97.9983, 98.233, 98.233, 98.4979, 98.437, 98.2919, 97.8824, 98.3838, 98.3364, 98.6328, 98.5121, 98.4492, 98.3143
1750.52, 98.0349, 98.3346, 98.171, 98.1147, 97.9895, 97.7755, 98.3204, 98.1662, 97.9909, 98.2023, 98.2023, 98.5003, 98.4206, 98.2829, 97.878, 98.3533, 98.3348, 98.6214, 98.4955, 98.4493, 98.3074
1750.46, 98.0223, 98.315, 98.1857, 98.1057, 98.0014, 97.7479, 98.3475, 98.1763, 97.9874, 98.1742, 98.1742, 98.4959, 98.4119, 98.2783, 97.8824, 98.3283, 98.3394, 98.6004, 98.4741, 98.4479, 98.3108
1750.4, 98.0156, 98.2946, 98.1952, 98.0888, 98.0228, 97.7169, 98.3767, 98.1897, 97.9894, 98.1499, 98.1499, 98.4858, 98.4133, 98.2766, 97.8954, 98.3103, 98.3489, 98.5745, 98.45, 98.4446, 98.3234
1750.34, 98.0134, 98.274, 98.1979, 98.064, 98.0544, 97.685, 98.4041, 98.2025, 97.9968, 98.1287, 98.1287, 98.4711, 98.4255, 98.2759, 97.9156, 98.2998, 98.3606, 98.549, 98.4255, 98.4396, 98.3438
1750.28, 98.0131, 98.2538, 98.1926, 98.0332, 98.0954, 97.6548, 98.4262, 98.2114, 98.0079, 98.1096, 98.1096, 98.4533, 98.4477, 98.2745, 97.9412, 98.2958, 98.3715, 98.5284, 98.4021, 98.433, 98.3702
1750.22, 98.0117, 98.2348, 98.1785, 97.9999, 98.1423, 97.6291, 98.4404, 98.2142, 98.0199, 98.0909, 98.0909, 98.434, 98.4778, 98.271, 97.9701, 98.2963, 98.3792, 98.5158, 98.3809, 98.4251, 98.4008
1750.16, 98.0068, 98.2182, 98.1557, 97.9685, 98.1903, 97.61, 98.4459, 98.2099, 98.0297, 98.0713, 98.0713, 98.4148, 98.513, 98.2647, 98.0007, 98.2992, 98.3825, 98.5121, 98.3619, 98.4162, 98.4337
1750.1, 97.9962, 98.2053, 98.1258, 97.9433, 98.2332, 97.5993, 98.4435, 98.1992, 98.0348, 98.0506, 98.0506, 98.3972, 98.5508, 98.2552, 98.0317, 98.3023, 98.3818, 98.5163, 98.3447, 98.4071, 98.4663
1750.04, 97.9792, 98.1972, 98.0915, 97.9277, 98.266, 97.5977, 98.4355, 98.1835, 98.0335, 98.0298, 98.0298, 98.3822, 98.5894, 98.2429, 98.0619, 98.3046, 98.3794, 98.5259, 98.3282, 98.3989, 98.4958
1749.98, 97.9566, 98.1942, 98.0569, 97.9236, 98.2851, 97.6051, 98.4246, 98.166, 98.0253, 98.0107, 98.0107, 98.3707, 98.6277, 98.2281, 98.09, 98.3058, 98.3781, 98.5379, 98.3115, 98.3927, 98.5195
