Wavenumber, 9701_3-1.SPA, 971051_3-1.SPA, 97151_3-1.SPA, 97301_3-1.SPA, 97451_3-1.SPA, 97601_3-1.SPA, 97751_3-1.SPA, 97901_3-1.SPA
1810, 98.4299, 98.4985, 98.3375, 98.4831, 98.4679, 98.4954, 98.4578, 98.4444
1809.94, 98.4229, 98.4949, 98.3341, 98.4742, 98.4698, 98.4849, 98.463, 98.4452
1809.88, 98.4198, 98.4926, 98.3307, 98.4696, 98.4742, 98.4738, 98.4702, 98.4516
1809.82, 98.4204, 98.491, 98.3278, 98.4693, 98.4809, 98.4637, 98.4778, 98.463
1809.76, 98.4237, 98.4893, 98.3256, 98.472, 98.4886, 98.4556, 98.4843, 98.4782
1809.7, 98.4277, 98.4868, 98.324, 98.4759, 98.4958, 98.45, 98.4886, 98.4953
1809.64, 98.4305, 98.4831, 98.3231, 98.4795, 98.5005, 98.4466, 98.4901, 98.5125
1809.58, 98.4304, 98.4783, 98.3229, 98.4824, 98.5013, 98.4446, 98.489, 98.5276
1809.52, 98.427, 98.4731, 98.3239, 98.4849, 98.4975, 98.443, 98.486, 98.5391
1809.46, 98.4209, 98.4684, 98.3263, 98.4877, 98.4895, 98.4412, 98.4823, 98.5461
1809.4, 98.4135, 98.4655, 98.3299, 98.4914, 98.4785, 98.4391, 98.4792, 98.5484
1809.34, 98.4065, 98.465, 98.3339, 98.4958, 98.4663, 98.4371, 98.4781, 98.5467
1809.28, 98.4014, 98.4678, 98.337, 98.4998, 98.4549, 98.436, 98.4795, 98.5422
1809.22, 98.3989, 98.4739, 98.3372, 98.5021, 98.4458, 98.4365, 98.4834, 98.5365
1809.16, 98.3991, 98.4831, 98.3331, 98.5014, 98.4405, 98.4389, 98.4892, 98.5308
1809.1, 98.4014, 98.4949, 98.3242, 98.4973, 98.4396, 98.4426, 98.4957, 98.5261
1809.04, 98.4046, 98.5085, 98.311, 98.4902, 98.4434, 98.447, 98.5016, 98.5228
1808.98, 98.4079, 98.5229, 98.2955, 98.4815, 98.4517, 98.4511, 98.5058, 98.5209
1808.92, 98.4104, 98.5369, 98.2805, 98.4725, 98.4638, 98.4543, 98.5078, 98.5196
1808.86, 98.4114, 98.5494, 98.2686, 98.4645, 98.4785, 98.4565, 98.5076, 98.5184
1808.8, 98.4106, 98.5594, 98.2614, 98.4577, 98.4939, 98.4581, 98.5056, 98.5163
1808.74, 98.4074, 98.566, 98.2593, 98.4519, 98.5081, 98.4601, 98.5024, 98.5129
1808.68, 98.4019, 98.5688, 98.2611, 98.4464, 98.5192, 98.4633, 98.4985, 98.508
1808.62, 98.3941, 98.5678, 98.2649, 98.4409, 98.5255, 98.4682, 98.4938, 98.5016
1808.56, 98.3847, 98.5633, 98.2685, 98.4351, 98.5261, 98.4745, 98.4882, 98.4942
1808.5, 98.3747, 98.5558, 98.2707, 98.4297, 98.5211, 98.4817, 98.4814, 98.4866
1808.44, 98.3655, 98.5458, 98.2708, 98.4254, 98.5116, 98.4886, 98.4732, 98.4794
1808.38, 98.3586, 98.5339, 98.2697, 98.4229, 98.4992, 98.4943, 98.4637, 98.4731
1808.32, 98.3552, 98.5206, 98.2685, 98.4223, 98.4859, 98.498, 98.4537, 98.4681
1808.26, 98.3556, 98.5062, 98.2681, 98.4235, 98.4736, 98.4995, 98.4441, 98.4643
1808.2, 98.3598, 98.4916, 98.2692, 98.4259, 98.4635, 98.4988, 98.4358, 98.4619
1808.13, 98.3669, 98.4775, 98.2713, 98.4289, 98.4562, 98.4965, 98.4298, 98.4606
1808.07, 98.3757, 98.4651, 98.2734, 98.4318, 98.4514, 98.4929, 98.4261, 98.4605
1808.01, 98.3849, 98.4556, 98.2746, 98.434, 98.4484, 98.488, 98.4244, 98.4616
1807.95, 98.3933, 98.45, 98.2741, 98.4352, 98.4465, 98.4814, 98.4242, 98.4638
1807.89, 98.4, 98.4489, 98.2718, 98.4352, 98.4448, 98.4726, 98.4245, 98.4667
1807.83, 98.4047, 98.4525, 98.2682, 98.4339, 98.443, 98.4611, 98.4249, 98.4697
1807.77, 98.407, 98.4604, 98.2644, 98.4312, 98.4409, 98.4472, 98.4254, 98.4722
1807.71, 98.4073, 98.4716, 98.2614, 98.4276, 98.4389, 98.4319, 98.4266, 98.4733
1807.65, 98.4057, 98.4852, 98.2602, 98.4237, 98.4376, 98.4171, 98.4293, 98.4725
1807.59, 98.4028, 98.4998, 98.2609, 98.4207, 98.4375, 98.4054, 98.4343, 98.4697
1807.53, 98.3992, 98.5141, 98.2635, 98.4198, 98.4391, 98.3991, 98.4419, 98.4656
1807.47, 98.3951, 98.5268, 98.2674, 98.4219, 98.4423, 98.4002, 98.4518, 98.4611
1807.41, 98.3907, 98.5365, 98.272, 98.4274, 98.4467, 98.4088, 98.463, 98.4573
1807.35, 98.3861, 98.5421, 98.2767, 98.4362, 98.4514, 98.424, 98.4736, 98.4551
1807.29, 98.381, 98.5429, 98.2813, 98.4476, 98.4555, 98.4431, 98.4818, 98.4547
1807.23, 98.3753, 98.5387, 98.2854, 98.4607, 98.4577, 98.4627, 98.4861, 98.4557
1807.17, 98.3689, 98.5302, 98.2889, 98.4744, 98.4574, 98.4797, 98.4856, 98.4574
1807.11, 98.362, 98.5191, 98.2916, 98.4878, 98.4541, 98.4914, 98.4803, 98.459
1807.05, 98.3553, 98.5078, 98.2934, 98.5003, 98.4481, 98.497, 98.4713, 98.4602
1806.99, 98.3493, 98.4988, 98.2941, 98.5109, 98.4404, 98.4969, 98.4601, 98.4609
1806.93, 98.3448, 98.4941, 98.2935, 98.5188, 98.4322, 98.4925, 98.4484, 98.4619
1806.87, 98.342, 98.4948, 98.2915, 98.5231, 98.4249, 98.4857, 98.438, 98.4638
1806.81, 98.3406, 98.5006, 98.2882, 98.5233, 98.4198, 98.4784, 98.4297, 98.4673
1806.75, 98.34, 98.5105, 98.2838, 98.519, 98.4179, 98.4715, 98.4238, 98.4721
1806.69, 98.3394, 98.5225, 98.2783, 98.5109, 98.4194, 98.4654, 98.42, 98.4777
1806.63, 98.3381, 98.5347, 98.272, 98.5004, 98.4241, 98.4596, 98.4175, 98.4829
1806.57, 98.3357, 98.5458, 98.2651, 98.4891, 98.4311, 98.4534, 98.4154, 98.4864
1806.51, 98.3323, 98.5549, 98.2578, 98.4788, 98.4393, 98.4464, 98.4134, 98.4872
1806.45, 98.3283, 98.5616, 98.2501, 98.4705, 98.4476, 98.4389, 98.4111, 98.4849
1806.39, 98.3241, 98.5656, 98.2421, 98.4643, 98.4549, 98.4313, 98.4091, 98.4798
1806.33, 98.3201, 98.5665, 98.234, 98.4594, 98.4604, 98.4248, 98.4078, 98.4725
1806.27, 98.3163, 98.5635, 98.2259, 98.4548, 98.4633, 98.4206, 98.4078, 98.4642
1806.21, 98.3127, 98.5559, 98.2184, 98.4491, 98.4631, 98.4196, 98.409, 98.4555
1806.15, 98.309, 98.5431, 98.212, 98.4418, 98.4593, 98.4222, 98.4111, 98.4472
1806.09, 98.3049, 98.5252, 98.2074, 98.4329, 98.4518, 98.4284, 98.4134, 98.4394
1806.03, 98.3006, 98.5037, 98.2048, 98.4232, 98.4405, 98.4375, 98.4148, 98.4321
1805.97, 98.2966, 98.4804, 98.204, 98.4139, 98.4259, 98.4484, 98.4147, 98.425
1805.91, 98.2933, 98.4576, 98.2044, 98.406, 98.409, 98.4599, 98.4129, 98.4181
1805.84, 98.2914, 98.4375, 98.2051, 98.4, 98.3911, 98.4707, 98.4097, 98.4111
1805.78, 98.2912, 98.4212, 98.2049, 98.3962, 98.374, 98.4797, 98.4062, 98.4043
1805.72, 98.2926, 98.4088, 98.203, 98.3941, 98.3593, 98.4859, 98.4032, 98.3979
1805.66, 98.2952, 98.3998, 98.1994, 98.3933, 98.348, 98.4887, 98.4017, 98.3921
1805.6, 98.2985, 98.3933, 98.1942, 98.393, 98.3402, 98.4877, 98.4021, 98.3872
1805.54, 98.3015, 98.3885, 98.1885, 98.3928, 98.3353, 98.4824, 98.4041, 98.3835
1805.48, 98.3036, 98.3857, 98.183, 98.392, 98.332, 98.4728, 98.4069, 98.3812
1805.42, 98.3042, 98.3854, 98.1783, 98.3904, 98.329, 98.4591, 98.4098, 98.3805
1805.36, 98.303, 98.3885, 98.1742, 98.3874, 98.3255, 98.4423, 98.4122, 98.3812
1805.3, 98.2998, 98.3959, 98.1702, 98.383, 98.3214, 98.4237, 98.4141, 98.3834
1805.24, 98.2945, 98.4073, 98.1651, 98.377, 98.3175, 98.4055, 98.4157, 98.3869
1805.18, 98.2872, 98.4218, 98.1584, 98.3698, 98.3152, 98.39, 98.4178, 98.3914
1805.12, 98.2782, 98.4377, 98.1497, 98.3616, 98.3155, 98.3795, 98.4206, 98.3966
1805.06, 98.2678, 98.4528, 98.1395, 98.3529, 98.3188, 98.3755, 98.4239, 98.4026
1805, 98.2568, 98.4654, 98.1288, 98.3441, 98.3246, 98.3783, 98.427, 98.409
1804.94, 98.2462, 98.4745, 98.1186, 98.3354, 98.3312, 98.3867, 98.4286, 98.416
1804.88, 98.2369, 98.4798, 98.1096, 98.3272, 98.337, 98.3983, 98.4274, 98.4234
1804.82, 98.2302, 98.4814, 98.102, 98.3202, 98.3401, 98.4099, 98.4229, 98.4312
1804.76, 98.2265, 98.48, 98.0953, 98.3151, 98.3398, 98.4185, 98.4152, 98.4393
1804.7, 98.2263, 98.4762, 98.089, 98.3133, 98.3363, 98.4219, 98.4056, 98.4472
1804.64, 98.2289, 98.4706, 98.0826, 98.3159, 98.3307, 98.4197, 98.3959, 98.4543
1804.58, 98.2331, 98.4637, 98.0763, 98.324, 98.3247, 98.4128, 98.3882, 98.4597
1804.52, 98.2371, 98.4563, 98.0708, 98.3374, 98.3195, 98.4032, 98.3842, 98.4626
1804.46, 98.2393, 98.4495, 98.0672, 98.355, 98.3157, 98.3935, 98.3846, 98.4624
1804.4, 98.2379, 98.4446, 98.0663, 98.3748, 98.3134, 98.3857, 98.3893, 98.4586
1804.34, 98.2323, 98.4428, 98.0684, 98.3944, 98.3117, 98.3806, 98.3973, 98.4514
1804.28, 98.2227, 98.4449, 98.073, 98.4113, 98.3098, 98.3781, 98.4066, 98.4416
1804.22, 98.2102, 98.4508, 98.0793, 98.4241, 98.3072, 98.3769, 98.4156, 98.4305
1804.16, 98.1965, 98.4594, 98.0859, 98.432, 98.304, 98.3755, 98.4224, 98.4194
1804.1, 98.1834, 98.4691, 98.092, 98.4353, 98.3004, 98.3725, 98.4257, 98.41
1804.04, 98.1722, 98.4777, 98.0972, 98.4344, 98.2972, 98.3673, 98.4248, 98.4034
1803.98, 98.1635, 98.4837, 98.1019, 98.4299, 98.2945, 98.3601, 98.4196, 98.4003
1803.92, 98.1572, 98.4861, 98.1064, 98.4217, 98.292, 98.3517, 98.4108, 98.4006
1803.86, 98.1525, 98.4849, 98.111, 98.4096, 98.2893, 98.3432, 98.3996, 98.4035
1803.8, 98.1487, 98.481, 98.1156, 98.3935, 98.2852, 98.3359, 98.3878, 98.4078
1803.74, 98.1447, 98.4755, 98.1191, 98.3739, 98.2791, 98.3307, 98.3774, 98.4119
1803.68, 98.1402, 98.4696, 98.1202, 98.3521, 98.2708, 98.3281, 98.3699, 98.4143
1803.61, 98.1351, 98.4641, 98.1177, 98.3306, 98.2611, 98.3283, 98.366, 98.4138
1803.55, 98.1294, 98.4591, 98.1107, 98.3117, 98.2513, 98.3314, 98.3658, 98.4094
1803.49, 98.1233, 98.4546, 98.0996, 98.2978, 98.2431, 98.3368, 98.3679, 98.401
1803.43, 98.1163, 98.4501, 98.0855, 98.29, 98.238, 98.3439, 98.3708, 98.3889
1803.37, 98.1081, 98.4457, 98.0702, 98.288, 98.2371, 98.3517, 98.3726, 98.3742
1803.31, 98.0983, 98.4417, 98.0557, 98.2901, 98.2405, 98.359, 98.3719, 98.3581
1803.25, 98.0866, 98.4387, 98.0434, 98.2938, 98.2477, 98.3645, 98.3686, 98.342
1803.19, 98.0735, 98.4376, 98.0343, 98.2965, 98.2572, 98.3672, 98.3634, 98.3271
1803.13, 98.0599, 98.4389, 98.0283, 98.2963, 98.2675, 98.3664, 98.3577, 98.3142
1803.07, 98.0468, 98.443, 98.0249, 98.2922, 98.2768, 98.3619, 98.3531, 98.3035
1803.01, 98.0355, 98.4491, 98.023, 98.2842, 98.2837, 98.3543, 98.3506, 98.2947
1802.95, 98.0269, 98.4564, 98.0218, 98.2733, 98.2871, 98.3444, 98.3506, 98.2874
1802.89, 98.0212, 98.4636, 98.0207, 98.2606, 98.2868, 98.3332, 98.3525, 98.2811
1802.83, 98.0179, 98.4694, 98.0193, 98.2473, 98.2827, 98.3216, 98.3551, 98.2757
1802.77, 98.0163, 98.4733, 98.0181, 98.2343, 98.2752, 98.3103, 98.3571, 98.2716
1802.71, 98.0154, 98.475, 98.0174, 98.2225, 98.265, 98.2996, 98.3574, 98.2694
1802.65, 98.0143, 98.4752, 98.0179, 98.2126, 98.2531, 98.2894, 98.3556, 98.2699
1802.59, 98.0124, 98.4745, 98.0198, 98.2054, 98.2402, 98.2795, 98.3522, 98.2733
1802.53, 98.0097, 98.4739, 98.0232, 98.2014, 98.2275, 98.2697, 98.3477, 98.2796
1802.47, 98.0063, 98.4739, 98.0275, 98.2011, 98.2158, 98.2598, 98.3433, 98.2881
1802.41, 98.0023, 98.4748, 98.0315, 98.2047, 98.2058, 98.2498, 98.3397, 98.2978
1802.35, 97.9978, 98.4761, 98.0338, 98.2116, 98.1981, 98.2401, 98.3375, 98.3072
1802.29, 97.9928, 98.4773, 98.0325, 98.2213, 98.1929, 98.2312, 98.3368, 98.3152
1802.23, 97.9869, 98.4781, 98.0267, 98.2324, 98.1904, 98.2241, 98.3369, 98.3212
1802.17, 97.9799, 98.478, 98.0157, 98.2438, 98.1902, 98.2198, 98.337, 98.3249
1802.11, 97.9715, 98.4776, 98.0002, 98.2542, 98.1922, 98.2191, 98.336, 98.3261
1802.05, 97.9616, 98.4773, 97.9818, 98.2626, 98.196, 98.2224, 98.3323, 98.3253
1801.99, 97.9505, 98.478, 97.9627, 98.2684, 98.2011, 98.2292, 98.3252, 98.3229
1801.93, 97.9385, 98.4803, 97.9453, 98.2712, 98.2072, 98.2384, 98.314, 98.3192
1801.87, 97.926, 98.4845, 97.9315, 98.2706, 98.2138, 98.248, 98.299, 98.3149
1801.81, 97.9136, 98.4899, 97.9222, 98.2667, 98.2204, 98.2556, 98.2812, 98.3106
1801.75, 97.902, 98.4957, 97.9171, 98.2597, 98.2263, 98.2593, 98.2625, 98.3072
1801.69, 97.8918, 98.5005, 97.9148, 98.25, 98.2309, 98.2582, 98.2448, 98.3054
1801.63, 97.8832, 98.5034, 97.9133, 98.2381, 98.2338, 98.2527, 98.2297, 98.3057
1801.57, 97.8768, 98.5035, 97.9106, 98.2249, 98.2346, 98.2446, 98.2187, 98.3083
1801.51, 97.8726, 98.5006, 97.9054, 98.2114, 98.2337, 98.2364, 98.2123, 98.313
1801.45, 97.8708, 98.4954, 97.8972, 98.1985, 98.2318, 98.2309, 98.2102, 98.3192
1801.39, 97.8713, 98.4885, 97.8867, 98.1872, 98.2299, 98.23, 98.2121, 98.3261
1801.32, 97.874, 98.4809, 97.8754, 98.1778, 98.229, 98.2344, 98.2174, 98.3331
1801.26, 97.8783, 98.4731, 97.865, 98.1704, 98.2301, 98.2429, 98.2253, 98.3396
1801.2, 97.8836, 98.4653, 97.8569, 98.1646, 98.2333, 98.2529, 98.2355, 98.3453
1801.14, 97.8891, 98.457, 97.8519, 98.1598, 98.2379, 98.2613, 98.247, 98.35
1801.08, 97.8937, 98.4476, 97.8498, 98.1552, 98.2426, 98.2656, 98.2589, 98.3533
1801.02, 97.896, 98.4366, 97.8496, 98.1501, 98.2459, 98.2642, 98.2696, 98.3548
1800.96, 97.8949, 98.4236, 97.85, 98.1443, 98.246, 98.2573, 98.2774, 98.3539
1800.9, 97.8892, 98.409, 97.8497, 98.1381, 98.242, 98.2468, 98.2808, 98.35
1800.84, 97.8784, 98.3933, 97.8478, 98.1319, 98.2334, 98.235, 98.2791, 98.343
1800.78, 97.8625, 98.378, 97.844, 98.1265, 98.2206, 98.2245, 98.2727, 98.3331
1800.72, 97.8422, 98.364, 97.8388, 98.1222, 98.2048, 98.2171, 98.2628, 98.3211
1800.66, 97.8188, 98.3528, 97.8328, 98.1188, 98.1876, 98.2129, 98.2513, 98.3082
1800.6, 97.7939, 98.345, 97.8269, 98.116, 98.1708, 98.211, 98.2403, 98.2958
1800.54, 97.7696, 98.3408, 97.8215, 98.1128, 98.1562, 98.2094, 98.2315, 98.2848
1800.48, 97.7475, 98.3399, 97.8168, 98.1085, 98.1452, 98.206, 98.2256, 98.2761
1800.42, 97.7289, 98.3417, 97.8123, 98.1028, 98.1389, 98.1995, 98.2225, 98.27
1800.36, 97.7145, 98.3451, 97.8073, 98.0958, 98.1373, 98.1896, 98.2216, 98.2663
1800.3, 97.7043, 98.349, 97.8011, 98.0884, 98.1398, 98.1775, 98.222, 98.2651
1800.24, 97.6977, 98.3525, 97.793, 98.0813, 98.1449, 98.1651, 98.2228, 98.2663
1800.18, 97.6935, 98.3549, 97.7828, 98.0752, 98.1504, 98.1546, 98.2235, 98.2697
1800.12, 97.6902, 98.3558, 97.7703, 98.0701, 98.1541, 98.1479, 98.2238, 98.2754
1800.06, 97.6865, 98.355, 97.7556, 98.0657, 98.1542, 98.1455, 98.2234, 98.2832
1800, 97.6809, 98.3526, 97.7386, 98.061, 98.1497, 98.1469, 98.2222, 98.2926
1799.94, 97.6728, 98.3491, 97.7195, 98.0557, 98.1407, 98.1503, 98.2202, 98.303
1799.88, 97.6615, 98.3451, 97.6983, 98.0494, 98.1283, 98.1538, 98.2175, 98.3131
1799.82, 97.6474, 98.3411, 97.6752, 98.0428, 98.1143, 98.1552, 98.2145, 98.3218
1799.76, 97.6309, 98.338, 97.6507, 98.0368, 98.1003, 98.1531, 98.212, 98.3276
1799.7, 97.6128, 98.3361, 97.6257, 98.0323, 98.0879, 98.1469, 98.2105, 98.3296
1799.64, 97.5941, 98.3362, 97.6012, 98.0295, 98.0777, 98.1369, 98.2106, 98.327
1799.58, 97.5757, 98.3384, 97.5783, 98.0276, 98.07, 98.124, 98.2122, 98.3197
1799.52, 97.5583, 98.3431, 97.558, 98.0249, 98.0646, 98.1093, 98.2145, 98.3084
1799.46, 97.5424, 98.3503, 97.5409, 98.0194, 98.0612, 98.0941, 98.2163, 98.2944
1799.4, 97.5283, 98.3597, 97.5275, 98.0093, 98.0594, 98.0795, 98.2162, 98.2792
1799.34, 97.5156, 98.3711, 97.5178, 97.9942, 98.0589, 98.0663, 98.2134, 98.2646
1799.28, 97.5041, 98.3836, 97.5119, 97.9749, 98.0591, 98.0553, 98.2075, 98.2522
1799.22, 97.4931, 98.3963, 97.5096, 97.9536, 98.0589, 98.0472, 98.199, 98.2428
1799.16, 97.482, 98.4077, 97.5104, 97.9331, 98.0566, 98.0423, 98.1891, 98.2367
1799.09, 97.4702, 98.4163, 97.5135, 97.9159, 98.0508, 98.0407, 98.1789, 98.2333
1799.03, 97.4576, 98.4207, 97.5177, 97.9037, 98.04, 98.0423, 98.1696, 98.232
1798.97, 97.4442, 98.4198, 97.5215, 97.8967, 98.024, 98.0463, 98.1615, 98.2316
1798.91, 97.4305, 98.413, 97.523, 97.8938, 98.0037, 98.0517, 98.1548, 98.2318
1798.85, 97.417, 98.4007, 97.5208, 97.8932, 97.981, 98.0576, 98.1489, 98.232
1798.79, 97.4044, 98.384, 97.5142, 97.8929, 97.9584, 98.0628, 98.1429, 98.2325
1798.73, 97.3929, 98.3651, 97.5032, 97.8912, 97.9383, 98.067, 98.1363, 98.2329
1798.67, 97.3821, 98.3462, 97.489, 97.8872, 97.9221, 98.07, 98.1283, 98.2331
1798.61, 97.371, 98.3299, 97.4731, 97.8806, 97.9103, 98.0719, 98.119, 98.2322
1798.55, 97.3583, 98.3182, 97.4576, 97.8717, 97.9023, 98.0732, 98.1086, 98.2292
1798.49, 97.3423, 98.3124, 97.4437, 97.8608, 97.897, 98.0743, 98.0981, 98.2231
1798.43, 97.3217, 98.3128, 97.4324, 97.8482, 97.8935, 98.075, 98.0889, 98.2136
1798.37, 97.2958, 98.3184, 97.4238, 97.8343, 97.8912, 98.075, 98.0829, 98.2013
1798.31, 97.2648, 98.3278, 97.4173, 97.8191, 97.8898, 98.0737, 98.0819, 98.1873
1798.25, 97.2296, 98.3385, 97.412, 97.8029, 97.8892, 98.07, 98.0871, 98.1737
1798.19, 97.1921, 98.3485, 97.4073, 97.7858, 97.889, 98.0633, 98.0985, 98.1622
1798.13, 97.1545, 98.3559, 97.4023, 97.768, 97.8883, 98.053, 98.1147, 98.1541
1798.07, 97.1189, 98.3593, 97.3967, 97.7495, 97.8858, 98.0393, 98.1328, 98.1497
1798.01, 97.0872, 98.3585, 97.3901, 97.7307, 97.8801, 98.0228, 98.1492, 98.1486
1797.95, 97.0601, 98.3539, 97.3821, 97.7117, 97.8704, 98.0048, 98.1603, 98.1498
1797.89, 97.0376, 98.3466, 97.3723, 97.6927, 97.8568, 97.9868, 98.1638, 98.152
1797.83, 97.0188, 98.3377, 97.3605, 97.6742, 97.8408, 97.9703, 98.1596, 98.1544
1797.77, 97.0021, 98.3283, 97.3463, 97.6566, 97.8243, 97.9566, 98.1494, 98.1566
1797.71, 96.986, 98.3188, 97.3297, 97.6403, 97.81, 97.9462, 98.1363, 98.1586
1797.65, 96.9694, 98.3091, 97.3109, 97.6257, 97.7996, 97.9389, 98.1241, 98.1604
1797.59, 96.9516, 98.2985, 97.2899, 97.6129, 97.7941, 97.9338, 98.1158, 98.1617
1797.53, 96.9327, 98.2864, 97.2668, 97.602, 97.7933, 97.9294, 98.1129, 98.1622
1797.47, 96.9135, 98.2723, 97.2415, 97.5932, 97.796, 97.9243, 98.115, 98.1611
1797.41, 96.8947, 98.2567, 97.2137, 97.5867, 97.8006, 97.9174, 98.1205, 98.1579
1797.35, 96.8767, 98.2403, 97.1833, 97.5825, 97.8056, 97.9084, 98.1269, 98.1522
1797.29, 96.8593, 98.2249, 97.1506, 97.5806, 97.8096, 97.8977, 98.132, 98.1444
1797.23, 96.8417, 98.2119, 97.1166, 97.5806, 97.8116, 97.8864, 98.1342, 98.1353
1797.17, 96.8228, 98.2027, 97.0824, 97.5811, 97.8111, 97.8758, 98.1331, 98.1259
1797.11, 96.8015, 98.1974, 97.0499, 97.5803, 97.8077, 97.8671, 98.1289, 98.1172
1797.05, 96.777, 98.1953, 97.0204, 97.576, 97.8012, 97.8608, 98.1224, 98.1098
1796.99, 96.7495, 98.1946, 96.995, 97.5666, 97.7916, 97.8567, 98.1142, 98.1038
1796.93, 96.7198, 98.1931, 96.974, 97.551, 97.7791, 97.8539, 98.1049, 98.0988
1796.86, 96.6887, 98.1888, 96.957, 97.5299, 97.7646, 97.8511, 98.0951, 98.0938
1796.8, 96.657, 98.1805, 96.9431, 97.5052, 97.7491, 97.8474, 98.0851, 98.0879
1796.74, 96.6253, 98.1683, 96.9311, 97.48, 97.7342, 97.8422, 98.0752, 98.08
1796.68, 96.5934, 98.1533, 96.9199, 97.4572, 97.721, 97.8357, 98.0657, 98.0695
1796.62, 96.5611, 98.1378, 96.9086, 97.439, 97.7103, 97.8287, 98.0568, 98.0559
1796.56, 96.528, 98.1241, 96.8965, 97.4259, 97.7023, 97.8221, 98.0485, 98.0395
1796.5, 96.4947, 98.1143, 96.883, 97.417, 97.6967, 97.8169, 98.0401, 98.0209
1796.44, 96.4619, 98.1097, 96.8674, 97.4098, 97.6927, 97.8133, 98.0309, 98.0013
1796.38, 96.431, 98.1104, 96.8492, 97.4021, 97.6892, 97.8112, 98.02, 97.9824
1796.32, 96.4032, 98.1153, 96.828, 97.3918, 97.6852, 97.8099, 98.0065, 97.9659
1796.26, 96.3792, 98.1226, 96.8035, 97.3782, 97.68, 97.8083, 97.9903, 97.9534
1796.2, 96.3588, 98.1303, 96.7762, 97.3619, 97.6731, 97.8057, 97.9714, 97.9461
1796.14, 96.3408, 98.1366, 96.7467, 97.344, 97.6638, 97.8014, 97.9507, 97.9442
1796.08, 96.3233, 98.1401, 96.7163, 97.3259, 97.652, 97.7953, 97.9292, 97.9472
1796.02, 96.3047, 98.1404, 96.6862, 97.3086, 97.6373, 97.7875, 97.9084, 97.9537
1795.96, 96.2836, 98.1379, 96.6576, 97.2921, 97.6199, 97.7787, 97.8898, 97.962
1795.9, 96.2596, 98.1334, 96.6315, 97.2758, 97.6, 97.7693, 97.8749, 97.9704
1795.84, 96.2331, 98.1281, 96.6088, 97.2589, 97.5784, 97.7598, 97.8649, 97.9772
1795.78, 96.2051, 98.1229, 96.5896, 97.2408, 97.556, 97.7506, 97.8603, 97.9815
1795.72, 96.1768, 98.1184, 96.5741, 97.2217, 97.5339, 97.7418, 97.8609, 97.9828
1795.66, 96.149, 98.1149, 96.562, 97.2021, 97.513, 97.7335, 97.8658, 97.981
1795.6, 96.1222, 98.1119, 96.5524, 97.1831, 97.494, 97.7257, 97.8728, 97.9764
1795.54, 96.0962, 98.1087, 96.5441, 97.1653, 97.477, 97.7179, 97.8795, 97.9691
1795.48, 96.0704, 98.1049, 96.5357, 97.1491, 97.4622, 97.71, 97.8836, 97.9595
1795.42, 96.044, 98.1001, 96.5255, 97.1339, 97.4495, 97.7015, 97.8831, 97.9477
1795.36, 96.0165, 98.0944, 96.5121, 97.1188, 97.4387, 97.6921, 97.8773, 97.934
1795.3, 95.9872, 98.0882, 96.4949, 97.1025, 97.4298, 97.6817, 97.8666, 97.9188
1795.24, 95.956, 98.0825, 96.4737, 97.0843, 97.4229, 97.6704, 97.8527, 97.9027
1795.18, 95.923, 98.0782, 96.449, 97.0639, 97.4178, 97.6586, 97.8375, 97.8868
1795.12, 95.8886, 98.0763, 96.4219, 97.0417, 97.4139, 97.6469, 97.8233, 97.8719
1795.06, 95.8531, 98.0773, 96.3931, 97.0186, 97.4104, 97.6359, 97.8116, 97.8591
1795, 95.8171, 98.0814, 96.3633, 96.996, 97.4059, 97.6262, 97.8032, 97.8491
1794.94, 95.7807, 98.0884, 96.3323, 96.975, 97.3993, 97.618, 97.7978, 97.8422
1794.88, 95.7438, 98.0974, 96.2998, 96.9565, 97.3895, 97.6113, 97.7949, 97.8385
1794.82, 95.7057, 98.1073, 96.265, 96.9409, 97.3762, 97.6054, 97.7931, 97.8376
1794.76, 95.6653, 98.1166, 96.2277, 96.9282, 97.3598, 97.5997, 97.7915, 97.8392
1794.7, 95.6217, 98.124, 96.1882, 96.9177, 97.3411, 97.5935, 97.789, 97.843
1794.64, 95.5743, 98.1281, 96.1475, 96.9083, 97.3215, 97.5862, 97.785, 97.8487
1794.57, 95.5236, 98.1278, 96.1073, 96.8988, 97.3019, 97.5772, 97.7793, 97.8561
1794.51, 95.471, 98.1227, 96.0694, 96.8875, 97.2831, 97.5666, 97.7719, 97.8647
1794.45, 95.4191, 98.1127, 96.0353, 96.8734, 97.265, 97.5543, 97.7633, 97.8739
1794.39, 95.3705, 98.0988, 96.0059, 96.8559, 97.247, 97.541, 97.7541, 97.8826
1794.33, 95.3277, 98.0819, 95.9815, 96.8354, 97.2285, 97.5273, 97.7452, 97.8894
1794.27, 95.2923, 98.0636, 95.9614, 96.8132, 97.2089, 97.5142, 97.7371, 97.8929
1794.21, 95.2642, 98.0454, 95.9444, 96.7914, 97.1884, 97.5028, 97.7298, 97.8921
1794.15, 95.2423, 98.0283, 95.9291, 96.7722, 97.1675, 97.494, 97.723, 97.8866
1794.09, 95.2241, 98.0132, 95.9144, 96.7575, 97.1473, 97.4883, 97.7154, 97.8771
1794.03, 95.2072, 98.0006, 95.8991, 96.7481, 97.129, 97.4856, 97.7059, 97.8648
1793.97, 95.1891, 97.9902, 95.8829, 96.7436, 97.1132, 97.485, 97.6931, 97.8513
1793.91, 95.1683, 97.982, 95.8655, 96.7425, 97.0998, 97.4849, 97.6766, 97.8382
1793.85, 95.1438, 97.9752, 95.8469, 96.7423, 97.0881, 97.4835, 97.6567, 97.8261
1793.79, 95.1154, 97.9693, 95.8269, 96.7403, 97.0768, 97.479, 97.6349, 97.815
1793.73, 95.0837, 97.9637, 95.8054, 96.7342, 97.0646, 97.4705, 97.6133, 97.8043
1793.67, 95.0494, 97.9579, 95.782, 96.7225, 97.0505, 97.4579, 97.5945, 97.7929
1793.61, 95.0132, 97.9517, 95.7561, 96.7048, 97.0344, 97.4421, 97.5804, 97.7801
1793.55, 94.9763, 97.945, 95.7276, 96.6817, 97.0168, 97.4248, 97.5727, 97.7657
1793.49, 94.9398, 97.9384, 95.6966, 96.6547, 96.9987, 97.4078, 97.5716, 97.75
1793.43, 94.9047, 97.9323, 95.6642, 96.6255, 96.9816, 97.3926, 97.5765, 97.7342
1793.37, 94.8718, 97.9275, 95.6322, 96.5962, 96.9663, 97.38, 97.5861, 97.7193
1793.31, 94.8414, 97.9244, 95.6027, 96.5685, 96.9536, 97.37, 97.5985, 97.7064
1793.25, 94.8135, 97.923, 95.5778, 96.5438, 96.9433, 97.362, 97.6119, 97.6959
1793.19, 94.7875, 97.9228, 95.5586, 96.5227, 96.9349, 97.3552, 97.6245, 97.688
1793.13, 94.7629, 97.9231, 95.545, 96.5051, 96.9277, 97.3488, 97.6351, 97.6828
1793.07, 94.7391, 97.9233, 95.5352, 96.4901, 96.9212, 97.3421, 97.6428, 97.6801
1793.01, 94.716, 97.9229, 95.5265, 96.4765, 96.9149, 97.3349, 97.6472, 97.6799
1792.95, 94.6938, 97.9219, 95.5155, 96.4629, 96.9086, 97.3271, 97.6482, 97.6821
1792.89, 94.6727, 97.9211, 95.4996, 96.4479, 96.9025, 97.3188, 97.6458, 97.6864
1792.83, 94.653, 97.9209, 95.4773, 96.4308, 96.897, 97.3099, 97.6403, 97.6921
1792.77, 94.6342, 97.9221, 95.4492, 96.4117, 96.8922, 97.3004, 97.6319, 97.6983
1792.71, 94.6153, 97.9246, 95.4175, 96.3915, 96.8885, 97.2906, 97.6214, 97.7039
1792.65, 94.5951, 97.9278, 95.3856, 96.3715, 96.8862, 97.2812, 97.6094, 97.7081
1792.59, 94.5724, 97.931, 95.3569, 96.3529, 96.8852, 97.2728, 97.597, 97.7105
1792.53, 94.5468, 97.9334, 95.3341, 96.3368, 96.8854, 97.2666, 97.5857, 97.7116
1792.47, 94.5184, 97.9345, 95.3183, 96.3231, 96.8861, 97.2631, 97.5766, 97.7124
1792.41, 94.4885, 97.935, 95.3093, 96.3115, 96.8867, 97.2627, 97.5712, 97.714
1792.34, 94.459, 97.9356, 95.3058, 96.3008, 96.8863, 97.2648, 97.5699, 97.717
1792.28, 94.4314, 97.9377, 95.3058, 96.29, 96.884, 97.2682, 97.5727, 97.7215
1792.22, 94.4068, 97.9419, 95.3078, 96.2783, 96.8793, 97.2713, 97.5786, 97.7267
1792.16, 94.3855, 97.9482, 95.3102, 96.2652, 96.8724, 97.2726, 97.5858, 97.7313
1792.1, 94.3672, 97.9556, 95.3119, 96.2509, 96.8637, 97.2706, 97.5925, 97.734
1792.04, 94.3506, 97.9625, 95.312, 96.2359, 96.8547, 97.2649, 97.5966, 97.7337
1791.98, 94.3346, 97.9673, 95.3098, 96.2209, 96.8466, 97.2555, 97.5973, 97.7301
1791.92, 94.3183, 97.9686, 95.3047, 96.2067, 96.8406, 97.243, 97.5943, 97.7235
1791.86, 94.301, 97.9663, 95.2965, 96.1942, 96.8376, 97.2287, 97.5887, 97.7147
1791.8, 94.2828, 97.9611, 95.2854, 96.1842, 96.8375, 97.214, 97.582, 97.7043
1791.74, 94.2638, 97.9545, 95.2722, 96.1778, 96.8394, 97.2004, 97.5762, 97.693
1791.68, 94.2446, 97.948, 95.2583, 96.1757, 96.842, 97.1895, 97.5725, 97.6812
1791.62, 94.2261, 97.9429, 95.2453, 96.1786, 96.8444, 97.1827, 97.5717, 97.6692
1791.56, 94.2092, 97.9395, 95.2345, 96.1865, 96.8455, 97.1808, 97.5734, 97.6575
1791.5, 94.1951, 97.9376, 95.227, 96.1983, 96.8454, 97.184, 97.5763, 97.647
1791.44, 94.1851, 97.9362, 95.2232, 96.2122, 96.8446, 97.1917, 97.5788, 97.6386
1791.38, 94.1807, 97.9344, 95.223, 96.2256, 96.8442, 97.2023, 97.5793, 97.6337
1791.32, 94.1831, 97.9315, 95.2258, 96.2357, 96.8453, 97.2136, 97.5767, 97.6331
1791.26, 94.1929, 97.9273, 95.2313, 96.2404, 96.8486, 97.2235, 97.5706, 97.6372
1791.2, 94.21, 97.9219, 95.239, 96.2383, 96.8539, 97.2304, 97.5616, 97.6455
1791.14, 94.2335, 97.9157, 95.2484, 96.2298, 96.8604, 97.2336, 97.5508, 97.6566
1791.08, 94.2615, 97.9091, 95.2591, 96.2166, 96.8666, 97.2338, 97.5397, 97.6689
1791.02, 94.2916, 97.9025, 95.2705, 96.2014, 96.8711, 97.2324, 97.5299, 97.6807
1790.96, 94.3214, 97.8963, 95.2816, 96.1875, 96.8728, 97.231, 97.5226, 97.6906
1790.9, 94.3485, 97.891, 95.2912, 96.1777, 96.8715, 97.2308, 97.5181, 97.6979
1790.84, 94.3715, 97.8871, 95.2984, 96.1743, 96.8679, 97.232, 97.5162, 97.703
1790.78, 94.3891, 97.8852, 95.3027, 96.178, 96.8637, 97.2342, 97.5162, 97.7067
1790.72, 94.4013, 97.8861, 95.3042, 96.1885, 96.8607, 97.2361, 97.5173, 97.7101
1790.66, 94.4084, 97.89, 95.3039, 96.2046, 96.8603, 97.2369, 97.519, 97.7144
1790.6, 94.4115, 97.8968, 95.3032, 96.2241, 96.8633, 97.2366, 97.5209, 97.7203
1790.54, 94.4119, 97.9061, 95.3039, 96.2448, 96.8691, 97.2363, 97.5237, 97.728
1790.48, 94.4111, 97.9166, 95.3074, 96.2648, 96.8763, 97.2379, 97.5278, 97.737
1790.42, 94.4109, 97.927, 95.3146, 96.2825, 96.8826, 97.2432, 97.5337, 97.7462
1790.36, 94.4128, 97.9361, 95.3254, 96.2971, 96.8861, 97.2537, 97.5414, 97.7544
1790.3, 94.418, 97.9427, 95.3392, 96.3085, 96.8853, 97.2691, 97.5503, 97.7603
1790.24, 94.427, 97.9459, 95.3549, 96.3176, 96.8799, 97.288, 97.559, 97.7632
1790.18, 94.4399, 97.9453, 95.3713, 96.3254, 96.8708, 97.3076, 97.5662, 97.7628
1790.11, 94.4558, 97.9408, 95.3875, 96.3332, 96.8598, 97.3251, 97.5708, 97.7594
1790.05, 94.4733, 97.9326, 95.4031, 96.3418, 96.8495, 97.3383, 97.5725, 97.7541
1789.99, 94.4907, 97.9213, 95.4183, 96.3515, 96.8423, 97.3461, 97.5721, 97.7479
1789.93, 94.5066, 97.9079, 95.4337, 96.3619, 96.8403, 97.3491, 97.5708, 97.7421
1789.87, 94.5201, 97.894, 95.4499, 96.3719, 96.8445, 97.3485, 97.5707, 97.7376
1789.81, 94.5311, 97.8819, 95.4671, 96.3805, 96.8552, 97.3462, 97.5731, 97.7349
1789.75, 94.54, 97.8737, 95.485, 96.387, 96.8718, 97.3437, 97.5792, 97.7341
1789.69, 94.5482, 97.8716, 95.5026, 96.3911, 96.8929, 97.3419, 97.5891, 97.7348
1789.63, 94.5569, 97.8772, 95.5186, 96.394, 96.9164, 97.3409, 97.6024, 97.7366
1789.57, 94.5677, 97.8907, 95.5315, 96.3971, 96.9403, 97.3407, 97.6182, 97.7389
1789.51, 94.5814, 97.911, 95.5404, 96.4024, 96.9623, 97.3409, 97.6356, 97.7416
1789.45, 94.5985, 97.9355, 95.5453, 96.4115, 96.9808, 97.3417, 97.6534, 97.7449
1789.39, 94.6192, 97.9606, 95.5474, 96.4255, 96.9948, 97.3434, 97.6707, 97.7496
1789.33, 94.6434, 97.9823, 95.549, 96.4445, 97.0042, 97.3465, 97.6863, 97.7565
1789.27, 94.6707, 97.9971, 95.5526, 96.4677, 97.0099, 97.3514, 97.699, 97.7668
1789.21, 94.701, 98.0028, 95.5607, 96.4938, 97.0136, 97.3579, 97.7075, 97.7811
1789.15, 94.7337, 97.9991, 95.575, 96.5214, 97.0171, 97.3654, 97.711, 97.7998
1789.09, 94.7684, 97.9877, 95.596, 96.5491, 97.022, 97.3731, 97.7092, 97.8221
1789.03, 94.8041, 97.9719, 95.6227, 96.5761, 97.0291, 97.38, 97.7029, 97.8467
1788.97, 94.8396, 97.9556, 95.653, 96.6021, 97.0383, 97.3857, 97.6937, 97.8716
1788.91, 94.8741, 97.9425, 95.6844, 96.6274, 97.0485, 97.3901, 97.6838, 97.8944
1788.85, 94.9066, 97.9353, 95.7144, 96.6525, 97.058, 97.3936, 97.6755, 97.9131
1788.79, 94.937, 97.9348, 95.7412, 96.678, 97.0657, 97.3971, 97.6708, 97.9262
1788.73, 94.9661, 97.9402, 95.7643, 96.7043, 97.0709, 97.4012, 97.6706, 97.9333
1788.67, 94.9951, 97.949, 95.7844, 96.7315, 97.0744, 97.4064, 97.6754, 97.9344
1788.61, 95.0252, 97.9585, 95.803, 96.7593, 97.0779, 97.4128, 97.6848, 97.9308
1788.55, 95.0578, 97.9663, 95.8223, 96.787, 97.0836, 97.4201, 97.698, 97.9235
1788.49, 95.0932, 97.9706, 95.844, 96.8133, 97.0939, 97.4278, 97.7142, 97.914
1788.43, 95.1308, 97.9713, 95.8697, 96.837, 97.11, 97.4352, 97.7327, 97.9032
1788.37, 95.1697, 97.9694, 95.8994, 96.8569, 97.1322, 97.4421, 97.7525, 97.8919
1788.31, 95.2082, 97.9663, 95.9325, 96.8725, 97.1591, 97.4481, 97.7728, 97.8809
1788.25, 95.2454, 97.9642, 95.967, 96.8837, 97.1883, 97.4537, 97.7923, 97.8709
1788.19, 95.2806, 97.9643, 96.0005, 96.8912, 97.2169, 97.4595, 97.8098, 97.8631
1788.13, 95.3142, 97.9672, 96.0304, 96.8964, 97.2423, 97.4665, 97.8242, 97.8586
1788.07, 95.347, 97.9728, 96.0546, 96.9009, 97.2629, 97.4755, 97.8349, 97.8584
1788.01, 95.3799, 97.9801, 96.0722, 96.9061, 97.2778, 97.4873, 97.8419, 97.8632
1787.95, 95.4136, 97.9879, 96.0835, 96.9132, 97.2876, 97.502, 97.8461, 97.873
1787.89, 95.4478, 97.9947, 96.0899, 96.9226, 97.2936, 97.5192, 97.8486, 97.8869
1787.82, 95.4817, 97.9993, 96.0939, 96.9342, 97.2974, 97.5378, 97.8508, 97.9031
1787.76, 95.514, 98.0012, 96.0979, 96.9472, 97.3007, 97.5562, 97.8536, 97.9195
1787.7, 95.5432, 98.0003, 96.1042, 96.9609, 97.3044, 97.5732, 97.8578, 97.9337
1787.64, 95.5685, 97.9972, 96.1142, 96.9747, 97.3094, 97.5877, 97.8634, 97.9438
1787.58, 95.5898, 97.9935, 96.1282, 96.9885, 97.3156, 97.5994, 97.8702, 97.9484
1787.52, 95.6079, 97.9907, 96.1455, 97.0025, 97.3227, 97.6089, 97.8777, 97.9471
1787.46, 95.6244, 97.9908, 96.1653, 97.0171, 97.3303, 97.6175, 97.8857, 97.9403
1787.4, 95.6411, 97.9951, 96.1862, 97.0327, 97.3377, 97.6264, 97.8937, 97.9294
1787.34, 95.6602, 98.0044, 96.2075, 97.0499, 97.3446, 97.6369, 97.9016, 97.9165
1787.28, 95.6832, 98.0184, 96.2289, 97.0683, 97.3504, 97.6494, 97.9091, 97.9038
1787.22, 95.7109, 98.0356, 96.2507, 97.0874, 97.3549, 97.6639, 97.9159, 97.8938
1787.16, 95.7433, 98.0542, 96.2735, 97.1064, 97.3582, 97.6799, 97.922, 97.8883
1787.1, 95.7794, 98.0718, 96.2979, 97.1244, 97.3605, 97.6964, 97.9278, 97.8887
1787.04, 95.8173, 98.0867, 96.3242, 97.1406, 97.3624, 97.7129, 97.9339, 97.8953
1786.98, 95.8548, 98.0975, 96.3523, 97.155, 97.365, 97.729, 97.9412, 97.9077
1786.92, 95.8896, 98.1037, 96.3819, 97.1684, 97.3693, 97.7447, 97.9503, 97.9245
1786.86, 95.9201, 98.1056, 96.412, 97.1823, 97.3766, 97.76, 97.9616, 97.9442
1786.8, 95.9456, 98.1038, 96.4417, 97.1988, 97.3877, 97.7748, 97.9745, 97.965
1786.74, 95.9665, 98.0995, 96.4698, 97.2201, 97.403, 97.7888, 97.9876, 97.9853
1786.68, 95.9841, 98.0936, 96.4955, 97.2474, 97.422, 97.8013, 97.9991, 98.0037
1786.62, 96.0002, 98.0873, 96.5184, 97.2813, 97.4435, 97.8118, 98.0072, 98.0194
1786.56, 96.0165, 98.0819, 96.5384, 97.3205, 97.4659, 97.8202, 98.0109, 98.0318
1786.5, 96.0341, 98.0788, 96.556, 97.3626, 97.4873, 97.8267, 98.0101, 98.0408
1786.44, 96.0533, 98.0794, 96.572, 97.4045, 97.5065, 97.8325, 98.0057, 98.0466
1786.38, 96.0738, 98.0848, 96.5874, 97.4426, 97.5226, 97.8386, 97.9997, 98.0498
1786.32, 96.0952, 98.0956, 96.6033, 97.4743, 97.5357, 97.846, 97.9943, 98.0516
1786.26, 96.117, 98.1112, 96.62, 97.4981, 97.5468, 97.8556, 97.9917, 98.0528
1786.2, 96.1395, 98.1303, 96.6375, 97.514, 97.5569, 97.867, 97.9933, 98.0547
1786.14, 96.1633, 98.1503, 96.6551, 97.5234, 97.5673, 97.8796, 97.9997, 98.0578
1786.08, 96.189, 98.1688, 96.6716, 97.5286, 97.5787, 97.8922, 98.011, 98.062
1786.02, 96.2173, 98.1834, 96.686, 97.532, 97.5913, 97.9034, 98.0263, 98.0666
1785.96, 96.2483, 98.1925, 96.6975, 97.5359, 97.605, 97.9124, 98.0443, 98.0704
1785.9, 96.2812, 98.1959, 96.7064, 97.5422, 97.6188, 97.9185, 98.0637, 98.0724
1785.84, 96.3151, 98.1944, 96.7138, 97.5516, 97.6322, 97.9218, 98.0826, 98.0716
1785.78, 96.349, 98.1894, 96.7213, 97.5645, 97.6445, 97.9226, 98.0995, 98.068
1785.72, 96.3821, 98.1828, 96.731, 97.5807, 97.6555, 97.9214, 98.1134, 98.0624
1785.66, 96.4141, 98.1764, 96.7443, 97.5992, 97.6651, 97.9191, 98.1235, 98.0558
1785.59, 96.4449, 98.1712, 96.7618, 97.6188, 97.6737, 97.9164, 98.13, 98.0495
1785.53, 96.4747, 98.1678, 96.7828, 97.6379, 97.6815, 97.9139, 98.1342, 98.0445
1785.47, 96.5031, 98.1662, 96.8054, 97.6547, 97.6888, 97.9121, 98.1374, 98.041
1785.41, 96.5298, 98.1658, 96.8272, 97.6672, 97.6959, 97.9116, 98.1415, 98.039
1785.35, 96.554, 98.1659, 96.8461, 97.674, 97.703, 97.9122, 98.1477, 98.038
1785.29, 96.5753, 98.1659, 96.8605, 97.6745, 97.7101, 97.914, 98.1565, 98.038
1785.23, 96.5941, 98.1651, 96.8702, 97.6689, 97.7175, 97.9165, 98.1673, 98.0391
1785.17, 96.6115, 98.1631, 96.8763, 97.6588, 97.7256, 97.9191, 98.1788, 98.0416
1785.11, 96.6291, 98.16, 96.8805, 97.6463, 97.7346, 97.9213, 98.1891, 98.046
1785.05, 96.6488, 98.1561, 96.8853, 97.6341, 97.7447, 97.9229, 98.1965, 98.0525
1784.99, 96.6714, 98.1522, 96.8924, 97.6247, 97.7559, 97.9237, 98.2, 98.0606
1784.93, 96.6964, 98.1494, 96.9027, 97.62, 97.768, 97.9239, 98.1995, 98.069
1784.87, 96.7216, 98.1486, 96.9161, 97.6208, 97.7806, 97.9233, 98.1958, 98.0763
1784.81, 96.7438, 98.1509, 96.9316, 97.627, 97.7931, 97.9221, 98.1905, 98.0812
1784.75, 96.7595, 98.1567, 96.9481, 97.6374, 97.805, 97.92, 98.1853, 98.0829
1784.69, 96.766, 98.1663, 96.9643, 97.6504, 97.816, 97.9167, 98.1818, 98.0819
1784.63, 96.7628, 98.1795, 96.98, 97.6642, 97.8257, 97.9122, 98.1807, 98.0796
1784.57, 96.7512, 98.1958, 96.9956, 97.6772, 97.8344, 97.9071, 98.1823, 98.0779
1784.51, 96.7348, 98.2147, 97.0121, 97.6879, 97.842, 97.9024, 98.1862, 98.0788
1784.45, 96.7179, 98.2356, 97.0303, 97.6956, 97.8486, 97.8998, 98.1914, 98.0835
1784.39, 96.7051, 98.2577, 97.0511, 97.6999, 97.8543, 97.9011, 98.1969, 98.0921
1784.33, 96.6997, 98.2799, 97.0744, 97.7011, 97.8589, 97.9076, 98.2016, 98.1035
1784.27, 96.7035, 98.3005, 97.0994, 97.7, 97.8623, 97.9199, 98.2048, 98.1156
1784.21, 96.7162, 98.3178, 97.1246, 97.6979, 97.8644, 97.9376, 98.2061, 98.126
1784.15, 96.7362, 98.3298, 97.1485, 97.6961, 97.8651, 97.959, 98.2059, 98.1324
1784.09, 96.7611, 98.3347, 97.1696, 97.696, 97.8646, 97.982, 98.2047, 98.1333
1784.03, 96.7885, 98.3318, 97.1868, 97.699, 97.8635, 98.0043, 98.2034, 98.1283
1783.97, 96.8162, 98.3213, 97.1996, 97.7059, 97.8624, 98.0237, 98.2027, 98.1181
1783.91, 96.8429, 98.3048, 97.2078, 97.7171, 97.8621, 98.0389, 98.2029, 98.1041
1783.85, 96.8682, 98.2848, 97.2118, 97.7327, 97.8631, 98.049, 98.2041, 98.0887
1783.79, 96.8918, 98.2643, 97.212, 97.7519, 97.8659, 98.054, 98.2058, 98.074
1783.73, 96.9138, 98.2461, 97.2087, 97.7735, 97.8703, 98.0543, 98.2073, 98.0623
1783.67, 96.9342, 98.2322, 97.2026, 97.7958, 97.8759, 98.0506, 98.2077, 98.0552
1783.61, 96.9527, 98.2231, 97.1942, 97.8171, 97.8818, 98.0441, 98.2065, 98.0536
1783.55, 96.9686, 98.2183, 97.1845, 97.8352, 97.8873, 98.0359, 98.2038, 98.0576
1783.49, 96.9813, 98.2163, 97.1744, 97.8486, 97.8917, 98.0277, 98.2001, 98.0665
1783.43, 96.9903, 98.2152, 97.1652, 97.856, 97.8948, 98.0208, 98.196, 98.0792
1783.36, 96.9951, 98.2131, 97.158, 97.8572, 97.8968, 98.0164, 98.1927, 98.0942
1783.3, 96.9958, 98.2087, 97.1542, 97.8526, 97.8985, 98.0151, 98.191, 98.1098
1783.24, 96.9931, 98.2018, 97.1547, 97.8435, 97.9008, 98.0167, 98.1915, 98.1249
1783.18, 96.988, 98.1928, 97.1601, 97.8314, 97.9048, 98.0206, 98.1943, 98.1386
1783.12, 96.9815, 98.1826, 97.1705, 97.8182, 97.9108, 98.0254, 98.1991, 98.1506
1783.06, 96.9751, 98.1729, 97.1855, 97.8052, 97.9186, 98.03, 98.2054, 98.1612
1783, 96.9699, 98.1652, 97.2041, 97.7937, 97.9272, 98.0336, 98.2125, 98.1707
1782.94, 96.9667, 98.1609, 97.2249, 97.7845, 97.9351, 98.036, 98.2195, 98.1793
1782.88, 96.9661, 98.1608, 97.2462, 97.7781, 97.9405, 98.0373, 98.226, 98.1873
1782.82, 96.9683, 98.1652, 97.2666, 97.775, 97.9421, 98.0382, 98.2318, 98.1945
1782.76, 96.9733, 98.1735, 97.2848, 97.7755, 97.9394, 98.0389, 98.2365, 98.2003
1782.7, 96.9809, 98.1845, 97.2999, 97.7797, 97.933, 98.0394, 98.2401, 98.2043
1782.64, 96.9908, 98.1965, 97.3121, 97.7874, 97.9244, 98.0392, 98.2425, 98.2062
1782.58, 97.0022, 98.2077, 97.3215, 97.7976, 97.9156, 98.0376, 98.2433, 98.2056
1782.52, 97.0146, 98.2167, 97.3287, 97.8093, 97.9084, 98.0343, 98.2423, 98.2028
1782.46, 97.0269, 98.2229, 97.3342, 97.8207, 97.9042, 98.0295, 98.2388, 98.1983
1782.4, 97.0384, 98.2262, 97.3385, 97.8305, 97.903, 98.0242, 98.2328, 98.1929
1782.34, 97.0479, 98.2276, 97.3417, 97.8376, 97.9041, 98.0204, 98.2243, 98.1874
1782.28, 97.0549, 98.2282, 97.3439, 97.8418, 97.9061, 98.0201, 98.2141, 98.1829
1782.22, 97.0592, 98.2292, 97.3454, 97.8435, 97.9074, 98.0249, 98.2036, 98.1801
1782.16, 97.0608, 98.2312, 97.3466, 97.8438, 97.9069, 98.0354, 98.1942, 98.1798
1782.1, 97.0604, 98.2341, 97.348, 97.8437, 97.9044, 98.051, 98.1876, 98.1824
1782.04, 97.0591, 98.2371, 97.3502, 97.8442, 97.9003, 98.0694, 98.1849, 98.1878
1781.98, 97.0579, 98.2392, 97.3533, 97.8454, 97.8956, 98.0877, 98.1862, 98.1957
1781.92, 97.0579, 98.2396, 97.3568, 97.8466, 97.8916, 98.1028, 98.1907, 98.2048
1781.86, 97.0598, 98.238, 97.3601, 97.8467, 97.889, 98.1118, 98.1967, 98.2136
1781.8, 97.0638, 98.2347, 97.3621, 97.8443, 97.8877, 98.1134, 98.2025, 98.2203
1781.74, 97.0697, 98.2307, 97.3621, 97.8383, 97.8871, 98.1072, 98.206, 98.2235
1781.68, 97.0771, 98.2268, 97.3597, 97.8282, 97.8861, 98.0948, 98.206, 98.2224
1781.62, 97.0853, 98.2237, 97.3554, 97.8142, 97.8835, 98.0784, 98.2021, 98.2171
1781.56, 97.0938, 98.2211, 97.3502, 97.7974, 97.8785, 98.061, 98.1947, 98.2088
1781.5, 97.1022, 98.2184, 97.3449, 97.7793, 97.8708, 98.0452, 98.1848, 98.1995
1781.44, 97.1102, 98.2147, 97.3406, 97.7618, 97.861, 98.0333, 98.1735, 98.1915
1781.38, 97.1176, 98.2096, 97.3373, 97.7466, 97.8501, 98.0263, 98.1619, 98.1869
1781.32, 97.1244, 98.2031, 97.3347, 97.735, 97.8396, 98.0244, 98.1505, 98.1868
1781.26, 97.1302, 98.1965, 97.3318, 97.7277, 97.8309, 98.0267, 98.1401, 98.1913
1781.2, 97.1346, 98.1917, 97.3279, 97.7244, 97.8251, 98.0321, 98.1307, 98.1996
1781.14, 97.1371, 98.1905, 97.3227, 97.724, 97.8232, 98.039, 98.1228, 98.21
1781.07, 97.1374, 98.1942, 97.3167, 97.7252, 97.8249, 98.0464, 98.1169, 98.2208
1781.01, 97.1352, 98.2031, 97.3109, 97.7261, 97.8299, 98.0534, 98.1134, 98.2304
1780.95, 97.1312, 98.2158, 97.3068, 97.7253, 97.837, 98.0594, 98.1128, 98.2378
1780.89, 97.126, 98.2301, 97.3056, 97.7219, 97.8447, 98.0643, 98.1155, 98.2426
1780.83, 97.1207, 98.2434, 97.3079, 97.716, 97.8518, 98.0674, 98.1213, 98.2446
1780.77, 97.1162, 98.2533, 97.3137, 97.7083, 97.8573, 98.0682, 98.1298, 98.244
1780.71, 97.1132, 98.2583, 97.3219, 97.7004, 97.8607, 98.0657, 98.14, 98.2408
1780.65, 97.1112, 98.2585, 97.3311, 97.6939, 97.8624, 98.0595, 98.1508, 98.235
1780.59, 97.1095, 98.2549, 97.3394, 97.6902, 97.8628, 98.0495, 98.1608, 98.2267
1780.53, 97.1068, 98.249, 97.3452, 97.6898, 97.8624, 98.0363, 98.1689, 98.2164
1780.47, 97.1017, 98.2425, 97.3469, 97.6924, 97.8615, 98.0217, 98.174, 98.2048
1780.41, 97.0938, 98.2367, 97.3439, 97.6968, 97.8599, 98.0078, 98.1756, 98.1931
1780.35, 97.083, 98.232, 97.336, 97.7014, 97.8569, 97.9969, 98.1737, 98.1826
1780.29, 97.0705, 98.2283, 97.3241, 97.7044, 97.8519, 97.9908, 98.1691, 98.1742
1780.23, 97.0578, 98.225, 97.3096, 97.7051, 97.8447, 97.9902, 98.1631, 98.1685
1780.17, 97.0464, 98.2215, 97.2949, 97.7033, 97.8356, 97.9946, 98.1574, 98.1652
1780.11, 97.0373, 98.2175, 97.2822, 97.6999, 97.8258, 98.0022, 98.1538, 98.1634
1780.05, 97.0307, 98.213, 97.2734, 97.6962, 97.8165, 98.011, 98.1536, 98.1616
1779.99, 97.0258, 98.2081, 97.2696, 97.6937, 97.8089, 98.0189, 98.1574, 98.1586
1779.93, 97.0211, 98.2033, 97.2705, 97.6933, 97.8038, 98.0243, 98.1649, 98.1534
1779.87, 97.0151, 98.1988, 97.2745, 97.6949, 97.801, 98.0265, 98.1749, 98.146
1779.81, 97.0069, 98.1943, 97.2796, 97.6974, 97.7997, 98.0253, 98.186, 98.1373
1779.75, 96.9967, 98.1896, 97.2833, 97.699, 97.7989, 98.0211, 98.1962, 98.1286
1779.69, 96.9855, 98.1841, 97.2842, 97.6979, 97.7979, 98.0141, 98.2041, 98.1216
1779.63, 96.9751, 98.1773, 97.2819, 97.6926, 97.7966, 98.0043, 98.2085, 98.1175
1779.57, 96.9675, 98.1689, 97.2772, 97.6831, 97.7956, 97.9917, 98.2085, 98.1168
1779.51, 96.9642, 98.1591, 97.2717, 97.6704, 97.7959, 97.9765, 98.2038, 98.1187
1779.45, 96.9655, 98.1485, 97.267, 97.6568, 97.7984, 97.9593, 98.1941, 98.1215
1779.39, 96.9707, 98.1381, 97.2641, 97.6447, 97.8036, 97.9413, 98.1795, 98.1233
1779.33, 96.9777, 98.129, 97.2628, 97.6364, 97.8111, 97.9247, 98.1605, 98.122
1779.27, 96.9844, 98.1225, 97.2619, 97.6331, 97.8197, 97.9115, 98.1382, 98.1165
1779.21, 96.9884, 98.1191, 97.2596, 97.6345, 97.8281, 97.9037, 98.1145, 98.1068
1779.15, 96.9883, 98.1189, 97.2545, 97.639, 97.835, 97.9022, 98.0916, 98.0942
1779.09, 96.9835, 98.1214, 97.2454, 97.644, 97.8398, 97.9068, 98.072, 98.0809
1779.03, 96.9748, 98.1256, 97.2328, 97.6469, 97.8424, 97.916, 98.0577, 98.0691
1778.97, 96.9633, 98.1303, 97.2178, 97.6455, 97.843, 97.9276, 98.0497, 98.0609
1778.91, 96.9507, 98.1346, 97.2025, 97.6389, 97.8419, 97.9392, 98.0475, 98.057
1778.84, 96.9383, 98.1379, 97.1887, 97.6273, 97.8394, 97.9491, 98.0494, 98.0572
1778.78, 96.9265, 98.1406, 97.1781, 97.6122, 97.8353, 97.9564, 98.0528, 98.0602
1778.72, 96.9154, 98.1433, 97.1712, 97.5956, 97.8291, 97.9614, 98.055, 98.0644
1778.66, 96.9042, 98.1469, 97.1679, 97.5796, 97.8209, 97.965, 98.0543, 98.068
1778.6, 96.8918, 98.1521, 97.1672, 97.566, 97.811, 97.9685, 98.0501, 98.0699
1778.54, 96.8776, 98.1591, 97.1676, 97.5563, 97.8005, 97.9727, 98.0434, 98.0694
1778.48, 96.8611, 98.1675, 97.1678, 97.5509, 97.7906, 97.978, 98.036, 98.0666
1778.42, 96.8425, 98.176, 97.1664, 97.55, 97.7828, 97.9837, 98.0302, 98.0622
1778.36, 96.8224, 98.1835, 97.1627, 97.553, 97.778, 97.9888, 98.0276, 98.0567
1778.3, 96.8019, 98.1886, 97.1566, 97.559, 97.7763, 97.9919, 98.0289, 98.0509
1778.24, 96.782, 98.1906, 97.1483, 97.5666, 97.7774, 97.9918, 98.0335, 98.0453
1778.18, 96.7634, 98.1898, 97.1387, 97.5743, 97.7803, 97.9876, 98.0398, 98.0404
1778.12, 96.7466, 98.1865, 97.1285, 97.5806, 97.7836, 97.9791, 98.0457, 98.0368
1778.06, 96.7318, 98.182, 97.1182, 97.5841, 97.7863, 97.9664, 98.0494, 98.0347
1778, 96.7189, 98.1775, 97.1078, 97.5839, 97.7875, 97.95, 98.0496, 98.0344
1777.94, 96.7076, 98.1737, 97.0967, 97.5798, 97.7864, 97.9307, 98.0459, 98.0358
1777.88, 96.6976, 98.1714, 97.0839, 97.5723, 97.7824, 97.9091, 98.0387, 98.0385
1777.82, 96.6884, 98.1705, 97.0684, 97.5623, 97.7749, 97.8858, 98.0288, 98.0418
1777.76, 96.6794, 98.1707, 97.0495, 97.551, 97.7633, 97.8617, 98.0177, 98.0451
1777.7, 96.67, 98.1715, 97.0273, 97.5393, 97.7473, 97.8379, 98.0065, 98.048
1777.64, 96.6596, 98.1725, 97.0029, 97.5278, 97.727, 97.8157, 97.9964, 98.0502
1777.58, 96.6476, 98.1734, 96.9779, 97.5168, 97.7034, 97.7966, 97.9886, 98.0522
1777.52, 96.6334, 98.1739, 96.9546, 97.5062, 97.6782, 97.7822, 97.9836, 98.0544
1777.46, 96.6169, 98.1741, 96.9345, 97.4959, 97.6536, 97.7734, 97.9817, 98.0574
1777.4, 96.5978, 98.1741, 96.9189, 97.4861, 97.6319, 97.7704, 97.9826, 98.0614
1777.34, 96.5763, 98.1739, 96.9074, 97.4773, 97.6151, 97.7726, 97.9857, 98.0665
1777.28, 96.5525, 98.1732, 96.8988, 97.47, 97.6043, 97.7781, 97.9896, 98.0724
1777.22, 96.5267, 98.1712, 96.8912, 97.4649, 97.5995, 97.7846, 97.9931, 98.0782
1777.16, 96.4991, 98.1671, 96.882, 97.4621, 97.5997, 97.7896, 97.9953, 98.0833
1777.1, 96.4699, 98.1598, 96.8693, 97.4612, 97.6032, 97.7911, 97.9955, 98.0868
1777.04, 96.4397, 98.1482, 96.8514, 97.4606, 97.6076, 97.7881, 97.9943, 98.0879
1776.98, 96.4091, 98.1321, 96.8275, 97.4583, 97.6107, 97.7808, 97.9923, 98.086
1776.92, 96.3788, 98.1119, 96.7979, 97.4517, 97.6106, 97.7706, 97.9906, 98.0804
1776.86, 96.3493, 98.0894, 96.7637, 97.439, 97.6061, 97.7596, 97.99, 98.0707
1776.8, 96.3207, 98.0667, 96.7265, 97.419, 97.5969, 97.7499, 97.9908, 98.057
1776.74, 96.2926, 98.0469, 96.6883, 97.3918, 97.5835, 97.743, 97.9923, 98.0397
1776.68, 96.2643, 98.0327, 96.6513, 97.359, 97.5668, 97.7394, 97.9936, 98.02
1776.62, 96.2348, 98.0259, 96.6172, 97.3232, 97.5485, 97.7388, 97.9934, 97.9993
1776.55, 96.2032, 98.0272, 96.5873, 97.2871, 97.5301, 97.7398, 97.991, 97.9792
1776.49, 96.1691, 98.0357, 96.5622, 97.2535, 97.5128, 97.7411, 97.9859, 97.9611
1776.43, 96.1329, 98.0496, 96.5413, 97.224, 97.4976, 97.7413, 97.9784, 97.9461
1776.37, 96.0955, 98.066, 96.5238, 97.1991, 97.4849, 97.7398, 97.9693, 97.9349
1776.31, 96.0582, 98.0823, 96.5082, 97.1782, 97.4743, 97.7364, 97.959, 97.9277
1776.25, 96.0221, 98.096, 96.493, 97.1597, 97.4655, 97.7315, 97.948, 97.9247
1776.19, 95.9878, 98.1057, 96.4768, 97.1418, 97.4577, 97.7256, 97.936, 97.9259
1776.13, 95.955, 98.1106, 96.4584, 97.1228, 97.4504, 97.719, 97.9223, 97.9314
1776.07, 95.9229, 98.1106, 96.4373, 97.1016, 97.4429, 97.7116, 97.9065, 97.9408
1776.01, 95.8901, 98.1063, 96.4132, 97.078, 97.435, 97.7031, 97.8882, 97.9532
1775.95, 95.8556, 98.0982, 96.3859, 97.0522, 97.4263, 97.6928, 97.8677, 97.967
1775.89, 95.8185, 98.087, 96.3558, 97.0249, 97.4168, 97.6803, 97.8459, 97.9798
1775.83, 95.7787, 98.0735, 96.3232, 96.9968, 97.4062, 97.6652, 97.8238, 97.9891
1775.77, 95.7367, 98.0583, 96.2887, 96.9687, 97.3945, 97.6478, 97.8026, 97.9926
1775.71, 95.6931, 98.0424, 96.2527, 96.9406, 97.3815, 97.6284, 97.7832, 97.9893
1775.65, 95.6484, 98.0267, 96.2158, 96.9126, 97.3674, 97.6077, 97.766, 97.9794
1775.59, 95.6029, 98.012, 96.1782, 96.8845, 97.352, 97.5863, 97.7513, 97.9645
1775.53, 95.5565, 97.9991, 96.1399, 96.856, 97.3352, 97.565, 97.7389, 97.9472
1775.47, 95.5091, 97.9885, 96.1009, 96.8269, 97.317, 97.5444, 97.7291, 97.9303
1775.41, 95.4602, 97.9806, 96.061, 96.7974, 97.2972, 97.5252, 97.722, 97.9157
1775.35, 95.41, 97.9756, 96.0205, 96.7676, 97.2755, 97.5081, 97.718, 97.9044
1775.29, 95.3587, 97.9732, 95.9797, 96.738, 97.252, 97.4935, 97.7171, 97.8958
1775.23, 95.3065, 97.9734, 95.9393, 96.7093, 97.2269, 97.4817, 97.7194, 97.8886
1775.17, 95.2536, 97.9757, 95.8998, 96.6821, 97.2007, 97.4724, 97.7244, 97.8812
1775.11, 95.2002, 97.9798, 95.8616, 96.6571, 97.1739, 97.4652, 97.7313, 97.872
1775.05, 95.146, 97.9851, 95.8245, 96.6348, 97.1472, 97.4592, 97.739, 97.8605
1774.99, 95.0906, 97.9909, 95.7876, 96.6149, 97.1209, 97.4537, 97.7462, 97.8468
1774.93, 95.0339, 97.9963, 95.7498, 96.597, 97.0949, 97.4479, 97.7517, 97.8316
1774.87, 94.9757, 98.0005, 95.7103, 96.5798, 97.069, 97.4417, 97.7543, 97.8158
1774.81, 94.9165, 98.0025, 95.6686, 96.5617, 97.0425, 97.4348, 97.7531, 97.8001
1774.75, 94.8568, 98.0013, 95.6252, 96.5409, 97.015, 97.4276, 97.7476, 97.785
1774.69, 94.797, 97.9961, 95.5814, 96.5161, 96.9862, 97.4198, 97.7379, 97.7707
1774.63, 94.7373, 97.9861, 95.5387, 96.4865, 96.9565, 97.4107, 97.7248, 97.7568
1774.57, 94.678, 97.9708, 95.4984, 96.4521, 96.9268, 97.3996, 97.7096, 97.7433
1774.51, 94.6185, 97.9503, 95.4608, 96.4142, 96.8984, 97.3851, 97.6939, 97.7303
1774.45, 94.5587, 97.9254, 95.4253, 96.3741, 96.8724, 97.3662, 97.6789, 97.718
1774.39, 94.4982, 97.8976, 95.3904, 96.3338, 96.8496, 97.3425, 97.665, 97.7071
1774.32, 94.4369, 97.8694, 95.354, 96.2944, 96.8297, 97.3144, 97.6515, 97.6984
1774.26, 94.3746, 97.8433, 95.3145, 96.2568, 96.812, 97.2834, 97.6367, 97.6926
1774.2, 94.3111, 97.8223, 95.2704, 96.2205, 96.7949, 97.2513, 97.6183, 97.6897
1774.14, 94.2458, 97.8083, 95.2214, 96.1846, 96.7764, 97.2203, 97.5947, 97.6898
1774.08, 94.1779, 97.8021, 95.1674, 96.148, 96.755, 97.1919, 97.5654, 97.692
1774.02, 94.1063, 97.8032, 95.1089, 96.1096, 96.7296, 97.1671, 97.5316, 97.6953
1773.96, 94.0304, 97.8098, 95.046, 96.0691, 96.7, 97.1458, 97.4963, 97.6986
1773.9, 93.9498, 97.8194, 94.9788, 96.027, 96.6672, 97.1272, 97.4629, 97.7009
1773.84, 93.8647, 97.8293, 94.9076, 95.9846, 96.6325, 97.1102, 97.4349, 97.7016
1773.78, 93.7759, 97.8371, 94.8328, 95.9433, 96.5974, 97.0937, 97.4142, 97.7006
1773.72, 93.6845, 97.8415, 94.7554, 95.9044, 96.563, 97.0767, 97.4006, 97.6983
1773.66, 93.5914, 97.8419, 94.6769, 95.8681, 96.5296, 97.0588, 97.3923, 97.6951
1773.6, 93.4971, 97.8387, 94.5988, 95.8335, 96.497, 97.0399, 97.3862, 97.691
1773.54, 93.4015, 97.8325, 94.5225, 95.7987, 96.4642, 97.02, 97.3792, 97.6856
1773.48, 93.3043, 97.824, 94.4482, 95.761, 96.4301, 96.9996, 97.3694, 97.678
1773.42, 93.2052, 97.8138, 94.3757, 95.7179, 96.3942, 96.979, 97.356, 97.6666
1773.36, 93.1044, 97.8025, 94.3034, 95.6676, 96.3563, 96.9588, 97.3397, 97.6501
1773.3, 93.0027, 97.7905, 94.2299, 95.6099, 96.317, 96.939, 97.3217, 97.6276
1773.24, 92.9012, 97.7786, 94.154, 95.5457, 96.2776, 96.9196, 97.303, 97.5993
1773.18, 92.8011, 97.7673, 94.0751, 95.4773, 96.2391, 96.9002, 97.284, 97.5664
1773.12, 92.7033, 97.7572, 93.9939, 95.4076, 96.2024, 96.88, 97.2643, 97.5309
1773.06, 92.6075, 97.7485, 93.9116, 95.3389, 96.1675, 96.858, 97.2429, 97.4954
1773, 92.5129, 97.7409, 93.8297, 95.273, 96.1341, 96.8331, 97.2193, 97.462
1772.94, 92.4178, 97.7335, 93.7497, 95.2105, 96.1009, 96.8047, 97.1933, 97.4324
1772.88, 92.3203, 97.725, 93.6721, 95.1511, 96.067, 96.7728, 97.1656, 97.4071
1772.82, 92.2184, 97.7141, 93.5967, 95.0942, 96.0313, 96.7381, 97.1371, 97.3858
1772.76, 92.1113, 97.7, 93.5227, 95.0388, 95.9936, 96.7017, 97.1091, 97.3674
1772.7, 91.9985, 97.6828, 93.4487, 94.9848, 95.9537, 96.6653, 97.0821, 97.3506
1772.64, 91.8806, 97.6634, 93.3733, 94.9319, 95.912, 96.6297, 97.0564, 97.3344
1772.58, 91.7588, 97.6439, 93.2954, 94.88, 95.869, 96.5954, 97.0318, 97.3183
1772.52, 91.6345, 97.6264, 93.2146, 94.8289, 95.825, 96.5618, 97.0082, 97.3024
1772.46, 91.5092, 97.6129, 93.1305, 94.7775, 95.78, 96.5278, 96.9861, 97.2876
1772.4, 91.3845, 97.6046, 93.0435, 94.7245, 95.7339, 96.4922, 96.9659, 97.2747
1772.34, 91.2616, 97.6016, 92.9543, 94.668, 95.6866, 96.4543, 96.9486, 97.2645
1772.28, 91.1416, 97.6029, 92.8635, 94.6065, 95.638, 96.4141, 96.9345, 97.2577
1772.22, 91.0251, 97.6066, 92.7722, 94.5393, 95.5883, 96.3727, 96.9233, 97.2539
1772.16, 90.912, 97.6101, 92.6814, 94.4668, 95.5378, 96.3316, 96.914, 97.2524
1772.1, 90.8016, 97.6107, 92.5919, 94.3903, 95.4869, 96.2925, 96.9048, 97.2522
1772.03, 90.6928, 97.6065, 92.5043, 94.3119, 95.4362, 96.2567, 96.894, 97.2516
1771.97, 90.584, 97.596, 92.4189, 94.2341, 95.386, 96.2247, 96.8805, 97.2494
1771.91, 90.474, 97.5796, 92.3355, 94.1587, 95.3365, 96.1961, 96.8643, 97.2441
1771.85, 90.3625, 97.5585, 92.2535, 94.0867, 95.2881, 96.1697, 96.8461, 97.2351
1771.79, 90.2496, 97.535, 92.1724, 94.0182, 95.2408, 96.1441, 96.8271, 97.2219
1771.73, 90.1364, 97.5116, 92.0918, 93.9526, 95.1949, 96.1178, 96.8085, 97.2043
1771.67, 90.0245, 97.4907, 92.0114, 93.8889, 95.1506, 96.09, 96.7907, 97.1824
1771.61, 89.9154, 97.4736, 91.9311, 93.8261, 95.108, 96.0608, 96.7738, 97.1567
1771.55, 89.81, 97.4602, 91.851, 93.7638, 95.0672, 96.0305, 96.7569, 97.1277
1771.49, 89.7087, 97.4492, 91.7713, 93.7021, 95.0282, 96.0003, 96.7394, 97.0965
1771.43, 89.6112, 97.4385, 91.6922, 93.6419, 94.9906, 95.9715, 96.7208, 97.0644
1771.37, 89.5166, 97.4256, 91.614, 93.5842, 94.9541, 95.945, 96.701, 97.0331
1771.31, 89.4239, 97.4088, 91.5369, 93.5305, 94.9183, 95.9218, 96.6804, 97.0045
1771.25, 89.3318, 97.3871, 91.4614, 93.4818, 94.8825, 95.902, 96.6598, 96.9802
1771.19, 89.2395, 97.3608, 91.3877, 93.4387, 94.8465, 95.8854, 96.6393, 96.9615
1771.13, 89.1464, 97.3311, 91.3161, 93.4007, 94.8097, 95.871, 96.6191, 96.9489
1771.07, 89.0523, 97.2995, 91.2466, 93.3669, 94.7719, 95.8578, 96.5985, 96.9418
1771.01, 88.9571, 97.2676, 91.1791, 93.3352, 94.7327, 95.8443, 96.5772, 96.9393
1770.95, 88.8611, 97.2364, 91.1131, 93.3035, 94.6922, 95.8293, 96.5546, 96.9396
1770.89, 88.765, 97.2065, 91.0482, 93.2693, 94.6501, 95.8117, 96.5307, 96.9409
1770.83, 88.6695, 97.1784, 90.9838, 93.2311, 94.6064, 95.791, 96.5058, 96.9418
1770.77, 88.5755, 97.1525, 90.9197, 93.1878, 94.5614, 95.7672, 96.4808, 96.941
1770.71, 88.4839, 97.1296, 90.8561, 93.1397, 94.5155, 95.7411, 96.4565, 96.938
1770.65, 88.3953, 97.1106, 90.7932, 93.0879, 94.4696, 95.7137, 96.4336, 96.9325
1770.59, 88.3101, 97.0963, 90.7318, 93.0345, 94.425, 95.6865, 96.4126, 96.9249
1770.53, 88.2281, 97.0874, 90.6725, 92.9813, 94.383, 95.6608, 96.3936, 96.9159
1770.47, 88.1487, 97.0835, 90.6161, 92.9301, 94.3451, 95.6378, 96.3762, 96.9065
1770.41, 88.0712, 97.0838, 90.563, 92.8819, 94.3126, 95.618, 96.3602, 96.8976
1770.35, 87.9951, 97.0866, 90.514, 92.8373, 94.2857, 95.6016, 96.3451, 96.8898
1770.29, 87.92, 97.09, 90.4693, 92.796, 94.2644, 95.5877, 96.3307, 96.8834
1770.23, 87.846, 97.0929, 90.429, 92.7577, 94.2475, 95.5754, 96.3168, 96.878
1770.17, 87.7736, 97.0944, 90.3931, 92.7223, 94.2335, 95.5632, 96.304, 96.8724
1770.11, 87.7036, 97.0947, 90.3607, 92.6897, 94.2206, 95.55, 96.2928, 96.8651
1770.05, 87.6374, 97.0948, 90.331, 92.6605, 94.2074, 95.5348, 96.2842, 96.8547
1769.99, 87.5761, 97.0958, 90.3025, 92.6349, 94.1929, 95.5175, 96.2788, 96.8403
1769.93, 87.5211, 97.0986, 90.274, 92.6131, 94.177, 95.4984, 96.2771, 96.8218
1769.87, 87.4732, 97.1035, 90.2449, 92.5951, 94.16, 95.4784, 96.279, 96.8004
1769.8, 87.433, 97.1102, 90.2154, 92.5804, 94.1427, 95.4586, 96.2839, 96.7781
1769.74, 87.4007, 97.1178, 90.1868, 92.5684, 94.1261, 95.4403, 96.2907, 96.7574
1769.68, 87.3759, 97.1251, 90.1611, 92.5586, 94.1114, 95.4246, 96.2984, 96.7406
1769.62, 87.3581, 97.1313, 90.1403, 92.5508, 94.0997, 95.4121, 96.3061, 96.7292
1769.56, 87.3462, 97.1359, 90.126, 92.5455, 94.0924, 95.4032, 96.3135, 96.7235
1769.5, 87.3389, 97.1391, 90.1189, 92.5431, 94.0909, 95.3981, 96.3206, 96.7228
1769.44, 87.335, 97.1413, 90.118, 92.5447, 94.0964, 95.3966, 96.3278, 96.7257
1769.38, 87.333, 97.1436, 90.1218, 92.5507, 94.1096, 95.3987, 96.335, 96.7304
1769.32, 87.3317, 97.1465, 90.1281, 92.5613, 94.1306, 95.4043, 96.3418, 96.7356
1769.26, 87.3302, 97.1507, 90.1353, 92.5759, 94.158, 95.4131, 96.3475, 96.7405
1769.2, 87.3281, 97.156, 90.1426, 92.5932, 94.1898, 95.4251, 96.3513, 96.7449
1769.14, 87.3257, 97.1622, 90.1507, 92.6113, 94.2234, 95.4403, 96.3529, 96.749
1769.08, 87.3243, 97.1685, 90.1605, 92.6286, 94.2562, 95.4585, 96.3528, 96.7532
1769.02, 87.3257, 97.1741, 90.1735, 92.6437, 94.2864, 95.4793, 96.3525, 96.7575
1768.96, 87.3319, 97.1783, 90.1903, 92.6558, 94.313, 95.5022, 96.3538, 96.7618
1768.9, 87.3445, 97.1806, 90.2106, 92.6652, 94.3363, 95.526, 96.3583, 96.7654
1768.84, 87.3643, 97.1806, 90.2329, 92.6726, 94.3568, 95.5495, 96.3669, 96.768
1768.78, 87.3909, 97.1784, 90.2555, 92.6796, 94.3754, 95.571, 96.3795, 96.7693
1768.72, 87.423, 97.1744, 90.2768, 92.6879, 94.3924, 95.5891, 96.3949, 96.7699
1768.66, 87.4585, 97.1694, 90.2965, 92.6991, 94.408, 95.6027, 96.4112, 96.7708
1768.6, 87.4954, 97.1644, 90.3156, 92.7145, 94.4218, 95.6116, 96.4271, 96.7737
1768.54, 87.5324, 97.1607, 90.3362, 92.7349, 94.434, 95.617, 96.4417, 96.7805
1768.48, 87.5693, 97.16, 90.3606, 92.7604, 94.4448, 95.6208, 96.4552, 96.793
1768.42, 87.6071, 97.1637, 90.391, 92.791, 94.4557, 95.6255, 96.4681, 96.8119
1768.36, 87.6477, 97.1731, 90.428, 92.8264, 94.4684, 95.6337, 96.4813, 96.837
1768.3, 87.6928, 97.1888, 90.4712, 92.8663, 94.4851, 95.6472, 96.4947, 96.8672
1768.24, 87.7439, 97.2106, 90.5187, 92.9104, 94.5072, 95.6665, 96.5079, 96.9003
1768.18, 87.8015, 97.2376, 90.5684, 92.9583, 94.5354, 95.6904, 96.5199, 96.9337
1768.12, 87.8648, 97.2679, 90.6183, 93.0096, 94.5693, 95.7171, 96.5298, 96.9649
1768.06, 87.9322, 97.2993, 90.6677, 93.0636, 94.6074, 95.744, 96.5377, 96.9925
1768, 88.0017, 97.3296, 90.7169, 93.119, 94.6476, 95.7693, 96.5449, 97.0155
1767.94, 88.0716, 97.357, 90.7672, 93.1744, 94.6881, 95.7923, 96.5536, 97.0344
1767.88, 88.1406, 97.3809, 90.8204, 93.2282, 94.7272, 95.8136, 96.5663, 97.0498
1767.82, 88.2079, 97.4012, 90.8775, 93.279, 94.7641, 95.835, 96.5848, 97.0628
1767.76, 88.2736, 97.4188, 90.9391, 93.3261, 94.7987, 95.8584, 96.6103, 97.0743
1767.7, 88.3383, 97.4348, 91.005, 93.3691, 94.8317, 95.8855, 96.6419, 97.0847
1767.64, 88.4026, 97.4502, 91.0739, 93.409, 94.8639, 95.917, 96.6781, 97.0942
1767.58, 88.4674, 97.4655, 91.1443, 93.447, 94.8966, 95.9522, 96.7167, 97.1029
1767.51, 88.5332, 97.4806, 91.2148, 93.4851, 94.9311, 95.9894, 96.7555, 97.1109
1767.45, 88.6006, 97.4947, 91.2843, 93.5252, 94.9681, 96.0263, 96.7932, 97.1185
1767.39, 88.6697, 97.507, 91.3519, 93.5687, 95.008, 96.0608, 96.8291, 97.1263
1767.33, 88.7406, 97.5168, 91.4173, 93.617, 95.0505, 96.0913, 96.863, 97.1349
1767.27, 88.8134, 97.5235, 91.4805, 93.6702, 95.0946, 96.1175, 96.8952, 97.1449
1767.21, 88.8881, 97.5276, 91.5421, 93.7284, 95.1388, 96.1399, 96.9256, 97.1563
1767.15, 88.965, 97.53, 91.6027, 93.7906, 95.1816, 96.1594, 96.9539, 97.169
1767.09, 89.0447, 97.5319, 91.6631, 93.8558, 95.222, 96.1773, 96.9799, 97.1826
1767.03, 89.1282, 97.5346, 91.7242, 93.9227, 95.2594, 96.1948, 97.0033, 97.1966
1766.97, 89.2161, 97.539, 91.7869, 93.99, 95.2943, 96.2122, 97.0241, 97.2104
1766.91, 89.3091, 97.5457, 91.8517, 94.0567, 95.3276, 96.2298, 97.0429, 97.2239
1766.85, 89.4072, 97.5547, 91.9186, 94.122, 95.3605, 96.2475, 97.0604, 97.2367
1766.79, 89.5098, 97.5657, 91.9875, 94.1854, 95.3941, 96.2654, 97.0776, 97.2491
1766.73, 89.6157, 97.5779, 92.0577, 94.2469, 95.4292, 96.2838, 97.0954, 97.2609
1766.67, 89.7236, 97.5909, 92.1289, 94.3068, 95.466, 96.3034, 97.1145, 97.2724
1766.61, 89.8323, 97.604, 92.2005, 94.3654, 95.5047, 96.3252, 97.1357, 97.2837
1766.55, 89.9406, 97.6173, 92.2728, 94.423, 95.5453, 96.3501, 97.1593, 97.2951
1766.49, 90.0483, 97.6307, 92.3461, 94.4796, 95.5879, 96.3787, 97.1854, 97.307
1766.43, 90.1553, 97.6448, 92.4213, 94.535, 95.6326, 96.411, 97.214, 97.3198
1766.37, 90.2616, 97.66, 92.499, 94.5889, 95.6793, 96.4464, 97.2441, 97.3341
1766.31, 90.3672, 97.6768, 92.5798, 94.6409, 95.7275, 96.4836, 97.2745, 97.3502
1766.25, 90.472, 97.6954, 92.6632, 94.691, 95.7761, 96.521, 97.3033, 97.3683
1766.19, 90.5754, 97.7155, 92.7486, 94.7392, 95.8234, 96.5569, 97.3288, 97.3884
1766.13, 90.6771, 97.7365, 92.8344, 94.7862, 95.8675, 96.5899, 97.3493, 97.4098
1766.07, 90.7769, 97.7572, 92.9189, 94.8324, 95.9073, 96.6195, 97.364, 97.432
1766.01, 90.875, 97.7766, 93.0006, 94.8788, 95.9424, 96.6455, 97.3731, 97.4542
1765.95, 90.9725, 97.7936, 93.0786, 94.9255, 95.9733, 96.6685, 97.3779, 97.4753
1765.89, 91.0702, 97.8078, 93.1528, 94.9731, 96.0017, 96.6897, 97.3805, 97.4947
1765.83, 91.1691, 97.8191, 93.2246, 95.0213, 96.0296, 96.7101, 97.383, 97.5115
1765.77, 91.2699, 97.828, 93.2955, 95.0701, 96.0587, 96.7312, 97.3874, 97.5256
1765.71, 91.3722, 97.8351, 93.3678, 95.1195, 96.0904, 96.7541, 97.3949, 97.5371
1765.65, 91.4752, 97.8412, 93.4428, 95.1693, 96.125, 96.7798, 97.406, 97.5465
1765.59, 91.5775, 97.847, 93.521, 95.2198, 96.1619, 96.8088, 97.4202, 97.5549
1765.53, 91.6776, 97.8528, 93.6017, 95.2708, 96.2003, 96.8415, 97.4367, 97.5637
1765.47, 91.7743, 97.8588, 93.6829, 95.3219, 96.2393, 96.8776, 97.4541, 97.5739
1765.41, 91.8668, 97.8656, 93.7622, 95.3726, 96.2779, 96.9164, 97.4714, 97.5865
1765.35, 91.9554, 97.8737, 93.8376, 95.4221, 96.3159, 96.9567, 97.4876, 97.6018
1765.28, 92.0409, 97.8839, 93.908, 95.4692, 96.3529, 96.9969, 97.5024, 97.6195
1765.22, 92.1246, 97.8971, 93.9734, 95.5133, 96.389, 97.0354, 97.5159, 97.639
1765.16, 92.2082, 97.9136, 94.0349, 95.5544, 96.4239, 97.0705, 97.5288, 97.6594
1765.1, 92.2929, 97.9329, 94.0942, 95.5928, 96.4573, 97.1015, 97.5421, 97.68
1765.04, 92.3795, 97.9536, 94.1528, 95.6299, 96.489, 97.1281, 97.5567, 97.7004
1764.98, 92.4683, 97.9735, 94.2113, 95.6672, 96.5186, 97.1509, 97.5736, 97.7201
1764.92, 92.5588, 97.9898, 94.2695, 95.7063, 96.5458, 97.1709, 97.5934, 97.7389
1764.86, 92.6498, 98, 94.3263, 95.7483, 96.5709, 97.1894, 97.616, 97.7565
1764.8, 92.7403, 98.0028, 94.3809, 95.7937, 96.594, 97.2072, 97.6413, 97.7722
1764.74, 92.8292, 97.9984, 94.4325, 95.8421, 96.616, 97.2251, 97.6684, 97.7851
1764.68, 92.916, 97.9886, 94.4817, 95.8925, 96.6379, 97.2432, 97.6964, 97.7946
1764.62, 93.0009, 97.9768, 94.5295, 95.9436, 96.6607, 97.2613, 97.7244, 97.8005
1764.56, 93.0843, 97.9667, 94.5775, 95.9941, 96.6856, 97.2792, 97.7516, 97.803
1764.5, 93.1669, 97.9618, 94.6267, 96.0432, 96.7134, 97.2968, 97.777, 97.8036
1764.44, 93.2487, 97.9645, 94.678, 96.0906, 96.7443, 97.314, 97.8001, 97.8041
1764.38, 93.3292, 97.975, 94.7309, 96.1367, 96.7781, 97.331, 97.8203, 97.8065
1764.32, 93.407, 97.992, 94.7846, 96.1821, 96.8135, 97.3477, 97.8373, 97.8128
1764.26, 93.4807, 98.0129, 94.8383, 96.2275, 96.8491, 97.3639, 97.8514, 97.8238
1764.2, 93.5489, 98.0343, 94.8913, 96.2733, 96.8833, 97.379, 97.8632, 97.8395
1764.14, 93.6111, 98.0533, 94.9437, 96.3198, 96.9151, 97.3928, 97.8738, 97.8584
1764.08, 93.6682, 98.0681, 94.9962, 96.3666, 96.944, 97.4051, 97.8844, 97.8783
1764.02, 93.7223, 98.0783, 95.0495, 96.4138, 96.9707, 97.4163, 97.8962, 97.8966
1763.96, 93.7764, 98.0848, 95.1041, 96.4612, 96.9962, 97.4276, 97.9099, 97.9108
1763.9, 93.8334, 98.0896, 95.1599, 96.5091, 97.0218, 97.4403, 97.9258, 97.9196
1763.84, 93.8954, 98.0946, 95.2158, 96.5581, 97.0482, 97.4564, 97.9436, 97.9227
1763.78, 93.9634, 98.1015, 95.2709, 96.6087, 97.0754, 97.4773, 97.9627, 97.9213
1763.72, 94.0366, 98.1109, 95.3238, 96.6613, 97.1022, 97.5037, 97.9828, 97.9179
1763.66, 94.113, 98.1226, 95.3741, 96.7153, 97.1268, 97.5358, 98.0036, 97.9153
1763.6, 94.1905, 98.1355, 95.4219, 96.7696, 97.1472, 97.5728, 98.0254, 97.916
1763.54, 94.2667, 98.1484, 95.4679, 96.8223, 97.162, 97.6134, 98.0485, 97.9217
1763.48, 94.3404, 98.1602, 95.5133, 96.8717, 97.171, 97.656, 98.0734, 97.9324
1763.42, 94.411, 98.1702, 95.559, 96.9165, 97.1749, 97.6987, 98.0998, 97.9472
1763.36, 94.4788, 98.1783, 95.6058, 96.9561, 97.1761, 97.7398, 98.1272, 97.9636
1763.3, 94.5444, 98.1849, 95.6541, 96.9914, 97.1771, 97.7775, 98.1544, 97.9792
1763.24, 94.608, 98.1905, 95.7038, 97.0237, 97.1808, 97.8101, 98.1801, 97.9917
1763.18, 94.6699, 98.1954, 95.7549, 97.055, 97.1894, 97.8361, 98.2032, 98.0002
1763.12, 94.7296, 98.1995, 95.8071, 97.0869, 97.2041, 97.8544, 98.2231, 98.0045
1763.05, 94.7869, 98.2025, 95.86, 97.1201, 97.225, 97.8647, 98.2399, 98.0059
1762.99, 94.8418, 98.2038, 95.913, 97.1545, 97.2514, 97.8678, 98.2544, 98.006
1762.93, 94.8952, 98.2032, 95.9648, 97.1893, 97.2819, 97.8652, 98.2679, 98.0066
1762.87, 94.9485, 98.2008, 96.014, 97.2234, 97.3151, 97.8595, 98.2819, 98.0091
1762.81, 95.0037, 98.1973, 96.0587, 97.2562, 97.3494, 97.8534, 98.2977, 98.0141
1762.75, 95.0626, 98.1938, 96.0973, 97.2873, 97.384, 97.8495, 98.3161, 98.0219
1762.69, 95.1265, 98.1915, 96.1289, 97.3173, 97.4182, 97.8495, 98.3376, 98.0323
1762.63, 95.1954, 98.1915, 96.1534, 97.3469, 97.4517, 97.854, 98.3618, 98.0448
1762.57, 95.2683, 98.1944, 96.1716, 97.3769, 97.4842, 97.8629, 98.3881, 98.059
1762.51, 95.343, 98.1998, 96.1854, 97.4074, 97.5154, 97.8748, 98.4152, 98.0743
1762.45, 95.4165, 98.2067, 96.197, 97.4383, 97.5444, 97.8886, 98.4416, 98.09
1762.39, 95.4859, 98.2137, 96.2089, 97.4687, 97.5701, 97.9029, 98.4657, 98.1053
1762.33, 95.5489, 98.219, 96.2231, 97.4979, 97.5914, 97.9168, 98.4862, 98.1195
1762.27, 95.6039, 98.2213, 96.2411, 97.5252, 97.6076, 97.9302, 98.502, 98.1322
1762.21, 95.6509, 98.2197, 96.2637, 97.5504, 97.6188, 97.9428, 98.5126, 98.1436
1762.15, 95.6909, 98.2141, 96.2911, 97.5738, 97.6262, 97.9544, 98.518, 98.1541
1762.09, 95.7255, 98.2052, 96.3229, 97.5957, 97.6321, 97.965, 98.5188, 98.1646
1762.03, 95.7568, 98.1944, 96.3581, 97.6164, 97.6392, 97.9738, 98.5158, 98.1758
1761.97, 95.7869, 98.1831, 96.3953, 97.6358, 97.65, 97.9804, 98.5103, 98.1882
1761.91, 95.8172, 98.1727, 96.4331, 97.6538, 97.6663, 97.9841, 98.5036, 98.2013
1761.85, 95.8485, 98.1645, 96.47, 97.6699, 97.6882, 97.9847, 98.4972, 98.2142
1761.79, 95.881, 98.1592, 96.5051, 97.6843, 97.7143, 97.9826, 98.4922, 98.2255
1761.73, 95.9142, 98.1572, 96.538, 97.6978, 97.7419, 97.9783, 98.4896, 98.2336
1761.67, 95.948, 98.1585, 96.5689, 97.7115, 97.7678, 97.9731, 98.49, 98.2375
1761.61, 95.982, 98.1632, 96.5986, 97.7271, 97.7892, 97.9681, 98.4933, 98.2373
1761.55, 96.0167, 98.1712, 96.6279, 97.746, 97.8043, 97.9643, 98.4987, 98.2335
1761.49, 96.0527, 98.1822, 96.6575, 97.7687, 97.8129, 97.9625, 98.5053, 98.2278
1761.43, 96.0908, 98.1958, 96.6874, 97.7945, 97.8163, 97.9633, 98.5118, 98.2218
1761.37, 96.1316, 98.2114, 96.717, 97.8218, 97.8166, 97.9668, 98.5174, 98.2176
1761.31, 96.1751, 98.2279, 96.7454, 97.848, 97.8165, 97.9726, 98.5215, 98.2167
1761.25, 96.2204, 98.2444, 96.7716, 97.8708, 97.8185, 97.9803, 98.5243, 98.2199
1761.19, 96.2657, 98.26, 96.795, 97.888, 97.8243, 97.9893, 98.5266, 98.2275
1761.13, 96.3087, 98.2741, 96.8159, 97.899, 97.8347, 97.9989, 98.5291, 98.2384
1761.07, 96.3472, 98.2866, 96.8353, 97.9041, 97.8494, 98.0085, 98.5326, 98.251
1761.01, 96.3795, 98.2979, 96.8545, 97.9052, 97.867, 98.0179, 98.5377, 98.2627
1760.95, 96.4051, 98.3084, 96.8749, 97.9047, 97.8856, 98.0272, 98.5446, 98.2711
1760.89, 96.4248, 98.3186, 96.8976, 97.9054, 97.9029, 98.037, 98.5534, 98.2741
1760.83, 96.4405, 98.3284, 96.9223, 97.9097, 97.917, 98.048, 98.5639, 98.2706
1760.76, 96.455, 98.3372, 96.948, 97.9194, 97.9263, 98.0611, 98.5762, 98.2611
1760.7, 96.4708, 98.3441, 96.9728, 97.9352, 97.9305, 98.0768, 98.5904, 98.2479
1760.64, 96.4897, 98.3483, 96.9945, 97.957, 97.9302, 98.0953, 98.6061, 98.2338
1760.58, 96.5124, 98.3495, 97.011, 97.9835, 97.9269, 98.1158, 98.6225, 98.2224
1760.52, 96.5382, 98.3479, 97.0212, 98.0133, 97.9227, 98.137, 98.6382, 98.2163
1760.46, 96.5655, 98.3448, 97.0249, 98.0444, 97.9195, 98.1572, 98.6516, 98.2168
1760.4, 96.5924, 98.3419, 97.0234, 98.0751, 97.919, 98.1746, 98.661, 98.2234
1760.34, 96.6174, 98.341, 97.0187, 98.104, 97.9217, 98.1879, 98.6652, 98.2338
1760.28, 96.6401, 98.3436, 97.0133, 98.1307, 97.9272, 98.1966, 98.6642, 98.2452
1760.22, 96.661, 98.3505, 97.0099, 98.1549, 97.9345, 98.2011, 98.6591, 98.2546
1760.16, 96.6816, 98.3619, 97.0107, 98.1772, 97.942, 98.2026, 98.6516, 98.2595
1760.1, 96.7039, 98.3773, 97.0169, 98.1983, 97.9482, 98.2031, 98.6441, 98.2591
1760.04, 96.7292, 98.3954, 97.0288, 98.2187, 97.9524, 98.2042, 98.6386, 98.2538
1759.98, 96.7583, 98.4149, 97.0459, 98.2389, 97.9541, 98.2076, 98.6363, 98.2452
1759.92, 96.7907, 98.4343, 97.0668, 98.2587, 97.9538, 98.214, 98.6377, 98.2357
1759.86, 96.825, 98.4518, 97.09, 98.2777, 97.9525, 98.2235, 98.6425, 98.2279
1759.8, 96.8592, 98.4657, 97.114, 98.2954, 97.9516, 98.2354, 98.65, 98.2239
1759.74, 96.8913, 98.4747, 97.1377, 98.311, 97.9523, 98.2487, 98.6592, 98.2252
1759.68, 96.92, 98.4775, 97.1609, 98.324, 97.9556, 98.2625, 98.669, 98.2326
1759.62, 96.9445, 98.4739, 97.1833, 98.3341, 97.9623, 98.2757, 98.6781, 98.2455
1759.56, 96.9653, 98.4642, 97.2054, 98.3412, 97.9724, 98.2878, 98.6853, 98.2626
1759.5, 96.9834, 98.4499, 97.2274, 98.3453, 97.9852, 98.2982, 98.6893, 98.2814
1759.44, 97.0001, 98.433, 97.2494, 98.3468, 97.9998, 98.3066, 98.689, 98.2992
1759.38, 97.0169, 98.416, 97.271, 98.3462, 98.0146, 98.3127, 98.6841, 98.3133
1759.32, 97.0351, 98.401, 97.292, 98.3446, 98.0283, 98.3163, 98.6749, 98.3214
1759.26, 97.0553, 98.3899, 97.3118, 98.3433, 98.0397, 98.3175, 98.663, 98.3225
1759.2, 97.0777, 98.3834, 97.3302, 98.3438, 98.0483, 98.3169, 98.6505, 98.3169
1759.14, 97.1017, 98.3819, 97.3474, 98.3476, 98.0542, 98.315, 98.6396, 98.306
1759.08, 97.1266, 98.3848, 97.364, 98.3556, 98.058, 98.313, 98.6318, 98.2922
1759.02, 97.151, 98.3914, 97.3805, 98.3681, 98.0606, 98.3119, 98.6276, 98.2779
1758.96, 97.1738, 98.4005, 97.3977, 98.3843, 98.063, 98.3122, 98.6265, 98.265
1758.9, 97.1938, 98.4112, 97.4159, 98.4026, 98.0658, 98.3141, 98.6269, 98.2549
1758.84, 97.2105, 98.4224, 97.435, 98.4209, 98.0692, 98.3169, 98.6271, 98.2479
1758.78, 97.2238, 98.4328, 97.4546, 98.4372, 98.0732, 98.3198, 98.6258, 98.2435
1758.72, 97.2343, 98.4416, 97.474, 98.4498, 98.0773, 98.3218, 98.6224, 98.2409
1758.66, 97.2432, 98.4479, 97.4926, 98.4578, 98.0816, 98.3222, 98.6172, 98.2394
1758.6, 97.2519, 98.4517, 97.51, 98.4611, 98.0859, 98.321, 98.6109, 98.2388
1758.53, 97.2617, 98.4533, 97.5259, 98.4598, 98.0905, 98.3188, 98.6042, 98.2392
1758.47, 97.2735, 98.4535, 97.5405, 98.4546, 98.0957, 98.3166, 98.5977, 98.2417
1758.41, 97.2878, 98.4535, 97.5537, 98.4462, 98.1015, 98.3151, 98.5917, 98.2473
1758.35, 97.3044, 98.4539, 97.5655, 98.435, 98.1079, 98.3148, 98.5861, 98.257
1758.29, 97.3225, 98.455, 97.5759, 98.4215, 98.1143, 98.3154, 98.5814, 98.2715
1758.23, 97.3408, 98.456, 97.5847, 98.4064, 98.1202, 98.3164, 98.5781, 98.2904
1758.17, 97.3582, 98.4553, 97.5919, 98.3904, 98.1247, 98.3167, 98.5774, 98.3125
1758.11, 97.3735, 98.451, 97.5977, 98.3744, 98.1273, 98.3157, 98.5803, 98.3359
1758.05, 97.3859, 98.4415, 97.6022, 98.3592, 98.1276, 98.3133, 98.5875, 98.3582
1757.99, 97.3954, 98.4259, 97.6057, 98.3453, 98.1258, 98.3097, 98.5993, 98.3775
1757.93, 97.4023, 98.4046, 97.6084, 98.3331, 98.1228, 98.306, 98.6145, 98.3921
1757.87, 97.4078, 98.3795, 97.6102, 98.3224, 98.1196, 98.3027, 98.6315, 98.4018
1757.81, 97.4133, 98.3535, 97.6106, 98.3131, 98.1177, 98.3003, 98.6479, 98.407
1757.75, 97.4202, 98.3302, 97.6091, 98.305, 98.1187, 98.2984, 98.6617, 98.4091
1757.69, 97.4297, 98.313, 97.6051, 98.2984, 98.1237, 98.2962, 98.6708, 98.4096
1757.63, 97.4422, 98.3049, 97.5981, 98.2934, 98.1332, 98.2926, 98.674, 98.4097
1757.57, 97.4572, 98.3074, 97.5882, 98.2906, 98.1468, 98.2869, 98.6712, 98.4098
1757.51, 97.4736, 98.3209, 97.5759, 98.29, 98.163, 98.2789, 98.6627, 98.4094
1757.45, 97.4896, 98.3446, 97.5624, 98.2913, 98.1796, 98.2691, 98.6496, 98.4076
1757.39, 97.5037, 98.3762, 97.5492, 98.2935, 98.1938, 98.2589, 98.6332, 98.403
1757.33, 97.5146, 98.4128, 97.5379, 98.2953, 98.2031, 98.2494, 98.6154, 98.3951
1757.27, 97.522, 98.451, 97.53, 98.2953, 98.2057, 98.2418, 98.5975, 98.3837
1757.21, 97.5261, 98.4875, 97.5269, 98.2927, 98.2009, 98.2365, 98.5807, 98.3698
1757.15, 97.5278, 98.5194, 97.5292, 98.2873, 98.1893, 98.2332, 98.5657, 98.3546
1757.09, 97.528, 98.5441, 97.5373, 98.2801, 98.1725, 98.2313, 98.5523, 98.3397
1757.03, 97.5275, 98.5605, 97.5507, 98.2727, 98.1528, 98.2301, 98.5399, 98.3264
1756.97, 97.5268, 98.5679, 97.5685, 98.2671, 98.1328, 98.2292, 98.5277, 98.3155
1756.91, 97.526, 98.567, 97.5893, 98.2648, 98.1147, 98.2287, 98.5149, 98.3074
1756.85, 97.5253, 98.5592, 97.6112, 98.2666, 98.1001, 98.2294, 98.5012, 98.302
1756.79, 97.5251, 98.5466, 97.6326, 98.272, 98.0898, 98.2319, 98.4867, 98.2992
1756.73, 97.5261, 98.5313, 97.6517, 98.2796, 98.0839, 98.2369, 98.4721, 98.299
1756.67, 97.529, 98.5157, 97.6675, 98.2872, 98.0819, 98.2444, 98.4583, 98.301
1756.61, 97.5348, 98.5014, 97.6793, 98.2924, 98.0829, 98.2539, 98.4458, 98.3051
1756.55, 97.544, 98.4895, 97.6872, 98.2935, 98.0857, 98.2642, 98.4347, 98.3112
1756.49, 97.5566, 98.4804, 97.6917, 98.2893, 98.0889, 98.2741, 98.4245, 98.3186
1756.43, 97.5722, 98.474, 97.6936, 98.2797, 98.0913, 98.2826, 98.4145, 98.327
1756.37, 97.5896, 98.4694, 97.6937, 98.2655, 98.0916, 98.289, 98.4041, 98.3357
1756.31, 97.6077, 98.4658, 97.6931, 98.2479, 98.0893, 98.2935, 98.3932, 98.3443
1756.24, 97.6258, 98.4624, 97.6925, 98.2287, 98.0845, 98.2965, 98.3822, 98.3526
1756.18, 97.6431, 98.4587, 97.6928, 98.2095, 98.0777, 98.2988, 98.3721, 98.3604
1756.12, 97.6595, 98.4547, 97.6943, 98.1917, 98.0703, 98.3013, 98.3643, 98.3676
1756.06, 97.6752, 98.4505, 97.6972, 98.1762, 98.0635, 98.3044, 98.36, 98.3742
1756, 97.6904, 98.4468, 97.7012, 98.1636, 98.0589, 98.3083, 98.3599, 98.3798
1755.94, 97.7055, 98.4441, 97.7058, 98.1538, 98.0576, 98.3129, 98.3639, 98.3842
1755.88, 97.7206, 98.4426, 97.7098, 98.1468, 98.0602, 98.3176, 98.3713, 98.387
1755.82, 97.7357, 98.4425, 97.7125, 98.1422, 98.0669, 98.322, 98.3807, 98.3877
1755.76, 97.7505, 98.4438, 97.7129, 98.1399, 98.0775, 98.3253, 98.3904, 98.3862
1755.7, 97.7647, 98.4463, 97.7107, 98.1396, 98.0918, 98.3269, 98.3987, 98.3825
1755.64, 97.7777, 98.4498, 97.7064, 98.1412, 98.1092, 98.3265, 98.4039, 98.3768
1755.58, 97.7886, 98.4541, 97.7005, 98.1446, 98.1293, 98.324, 98.405, 98.3696
1755.52, 97.7965, 98.459, 97.6945, 98.1497, 98.1516, 98.3196, 98.4015, 98.3615
1755.46, 97.8006, 98.4639, 97.6897, 98.156, 98.1752, 98.3138, 98.3934, 98.3532
1755.4, 97.8006, 98.4684, 97.6873, 98.1631, 98.1992, 98.3076, 98.3817, 98.3458
1755.34, 97.7965, 98.4715, 97.6884, 98.1701, 98.2223, 98.3022, 98.3676, 98.34
1755.28, 97.7894, 98.4722, 97.6936, 98.1763, 98.2427, 98.2986, 98.3524, 98.3366
1755.22, 97.7807, 98.4696, 97.7031, 98.1806, 98.2589, 98.2977, 98.3375, 98.3362
1755.16, 97.7725, 98.4633, 97.7167, 98.182, 98.269, 98.3, 98.3237, 98.3384
1755.1, 97.7666, 98.4533, 97.7336, 98.1802, 98.2718, 98.3051, 98.3115, 98.3428
1755.04, 97.7643, 98.4401, 97.7526, 98.1748, 98.2659, 98.3124, 98.3007, 98.3482
1754.98, 97.7661, 98.4249, 97.7721, 98.1667, 98.2512, 98.3207, 98.2911, 98.3528
1754.92, 97.7717, 98.409, 97.79, 98.157, 98.2279, 98.3289, 98.2823, 98.3552
1754.86, 97.7801, 98.3939, 97.8044, 98.1476, 98.1977, 98.3356, 98.2739, 98.3539
1754.8, 97.7898, 98.3805, 97.8139, 98.1407, 98.1629, 98.3401, 98.2659, 98.3481
1754.74, 97.7995, 98.3695, 97.8179, 98.1382, 98.127, 98.3418, 98.2583, 98.3377
1754.68, 97.8079, 98.3612, 97.817, 98.1415, 98.0935, 98.3406, 98.2513, 98.3234
1754.62, 97.8144, 98.3554, 97.8127, 98.1507, 98.066, 98.3365, 98.245, 98.3067
1754.56, 97.8184, 98.3516, 97.8073, 98.1652, 98.0473, 98.3296, 98.2393, 98.2897
1754.5, 97.8201, 98.3493, 97.8029, 98.183, 98.0388, 98.3203, 98.2343, 98.2744
1754.44, 97.8199, 98.348, 97.8016, 98.2018, 98.0407, 98.3092, 98.23, 98.263
1754.38, 97.8182, 98.3475, 97.8045, 98.2192, 98.0518, 98.2972, 98.2269, 98.2568
1754.32, 97.816, 98.3476, 97.812, 98.2332, 98.0702, 98.2851, 98.2256, 98.2564
1754.26, 97.8141, 98.3483, 97.824, 98.2428, 98.0935, 98.2744, 98.2267, 98.2613
1754.2, 97.8131, 98.3498, 97.84, 98.2479, 98.12, 98.2662, 98.2309, 98.2704
1754.14, 97.8135, 98.3527, 97.8593, 98.2491, 98.1479, 98.2616, 98.2384, 98.2818
1754.08, 97.8155, 98.3571, 97.881, 98.2474, 98.1766, 98.2611, 98.2492, 98.2937
1754.01, 97.8185, 98.3636, 97.904, 98.2435, 98.2055, 98.2647, 98.2626, 98.3046
1753.95, 97.8221, 98.3725, 97.9268, 98.238, 98.2342, 98.2718, 98.278, 98.3136
1753.89, 97.8258, 98.3838, 97.9475, 98.2313, 98.2619, 98.2811, 98.2942, 98.3206
1753.83, 97.8294, 98.3973, 97.9643, 98.2234, 98.2872, 98.2911, 98.3106, 98.3266
1753.77, 97.833, 98.4123, 97.9753, 98.2147, 98.3082, 98.3002, 98.3265, 98.3326
1753.71, 97.8374, 98.4279, 97.9796, 98.2059, 98.3228, 98.3069, 98.3412, 98.34
1753.65, 97.8432, 98.4427, 97.9774, 98.1981, 98.3291, 98.3101, 98.3545, 98.3495
1753.59, 97.851, 98.455, 97.9697, 98.1925, 98.326, 98.3094, 98.3661, 98.3615
1753.53, 97.8607, 98.4633, 97.9583, 98.1902, 98.3138, 98.3051, 98.3755, 98.3752
1753.47, 97.8717, 98.4665, 97.9454, 98.1917, 98.2943, 98.2985, 98.3828, 98.3892
1753.41, 97.8827, 98.4639, 97.9329, 98.1968, 98.2703, 98.2911, 98.3879, 98.4018
1753.35, 97.8921, 98.4558, 97.9221, 98.2044, 98.2456, 98.2853, 98.391, 98.4109
1753.29, 97.8989, 98.4434, 97.914, 98.2128, 98.2239, 98.2829, 98.3921, 98.4148
1753.23, 97.9024, 98.4284, 97.9088, 98.2203, 98.2079, 98.2855, 98.3912, 98.4125
1753.17, 97.9031, 98.4127, 97.9068, 98.2254, 98.199, 98.2934, 98.3882, 98.4041
1753.11, 97.9023, 98.398, 97.9083, 98.2275, 98.1968, 98.3055, 98.3826, 98.3907
1753.05, 97.9018, 98.3855, 97.9134, 98.2265, 98.1994, 98.3195, 98.3737, 98.3745
1752.99, 97.9032, 98.3757, 97.9218, 98.2233, 98.2044, 98.3325, 98.3607, 98.358
1752.93, 97.9078, 98.3682, 97.9328, 98.2188, 98.2088, 98.3415, 98.3433, 98.3439
1752.87, 97.9158, 98.3624, 97.9451, 98.214, 98.211, 98.3439, 98.3217, 98.3341
1752.81, 97.9265, 98.3576, 97.957, 98.2097, 98.21, 98.3387, 98.2968, 98.3294
1752.75, 97.9383, 98.3534, 97.9668, 98.206, 98.2065, 98.3261, 98.2704, 98.3294
1752.69, 97.9491, 98.3495, 97.9734, 98.2025, 98.202, 98.3079, 98.2452, 98.3326
1752.63, 97.9571, 98.3463, 97.9763, 98.1987, 98.1982, 98.2863, 98.2237, 98.3369
1752.57, 97.961, 98.3441, 97.976, 98.194, 98.1965, 98.2641, 98.2085, 98.3404
1752.51, 97.9604, 98.3429, 97.9734, 98.1882, 98.1977, 98.2432, 98.2011, 98.3416
1752.45, 97.9558, 98.3429, 97.9692, 98.1813, 98.2014, 98.2251, 98.202, 98.3402
1752.39, 97.9488, 98.3435, 97.9638, 98.1741, 98.207, 98.2102, 98.2104, 98.337
1752.33, 97.9412, 98.3443, 97.9569, 98.1671, 98.2132, 98.1982, 98.2244, 98.3333
1752.27, 97.9349, 98.3444, 97.9475, 98.1613, 98.2192, 98.1883, 98.241, 98.3306
1752.21, 97.9313, 98.3433, 97.9349, 98.157, 98.2243, 98.1796, 98.2574, 98.3302
1752.15, 97.931, 98.3405, 97.9188, 98.1543, 98.2285, 98.1713, 98.2712, 98.3324
1752.09, 97.9341, 98.3355, 97.9003, 98.1528, 98.2318, 98.1629, 98.2805, 98.3367
1752.03, 97.9396, 98.3286, 97.8813, 98.1519, 98.2342, 98.154, 98.2847, 98.3418
1751.97, 97.9465, 98.32, 97.8647, 98.1509, 98.2354, 98.1446, 98.2843, 98.3459
1751.91, 97.9534, 98.3106, 97.8534, 98.1492, 98.2351, 98.1353, 98.28, 98.3471
1751.85, 97.9594, 98.3021, 97.8499, 98.1467, 98.2324, 98.1269, 98.2733, 98.344
1751.79, 97.9638, 98.2964, 97.8553, 98.1434, 98.2266, 98.1204, 98.265, 98.336
1751.72, 97.9665, 98.2955, 97.8691, 98.1401, 98.2173, 98.1168, 98.2558, 98.3233
1751.66, 97.9677, 98.3014, 97.8896, 98.1371, 98.2045, 98.117, 98.2462, 98.307
1751.6, 97.9679, 98.3149, 97.9138, 98.1351, 98.1889, 98.1212, 98.2363, 98.2891
1751.54, 97.9677, 98.3352, 97.9384, 98.1346, 98.1717, 98.129, 98.2262, 98.2717
1751.48, 97.9679, 98.3603, 97.9604, 98.1357, 98.1541, 98.1392, 98.2164, 98.2566
1751.42, 97.9691, 98.3865, 97.9774, 98.1385, 98.1374, 98.15, 98.2074, 98.2451
1751.36, 97.9719, 98.4096, 97.9884, 98.1428, 98.1227, 98.1599, 98.2002, 98.2376
1751.3, 97.977, 98.4259, 97.9933, 98.1485, 98.1106, 98.1676, 98.1957, 98.2335
1751.24, 97.9845, 98.4331, 97.9933, 98.1554, 98.1011, 98.1725, 98.1949, 98.2315
1751.18, 97.9943, 98.4311, 97.9897, 98.1633, 98.0943, 98.1748, 98.1986, 98.23
1751.12, 98.0059, 98.421, 97.9845, 98.172, 98.0903, 98.1751, 98.2072, 98.2276
1751.06, 98.0179, 98.4059, 97.9789, 98.181, 98.0893, 98.1741, 98.2206, 98.2233
1751, 98.0289, 98.389, 97.974, 98.1902, 98.092, 98.1721, 98.2382, 98.2167
1750.94, 98.0369, 98.3731, 97.9702, 98.1991, 98.0991, 98.1693, 98.2587, 98.2079
1750.88, 98.0403, 98.3601, 97.9675, 98.2075, 98.1111, 98.1657, 98.2802, 98.1975
1750.82, 98.0382, 98.3506, 97.9657, 98.2154, 98.128, 98.1612, 98.3006, 98.1864
1750.76, 98.0305, 98.344, 97.9644, 98.2229, 98.1491, 98.1563, 98.3178, 98.1755
1750.7, 98.0182, 98.3391, 97.9634, 98.2304, 98.1727, 98.1519, 98.3303, 98.1659
1750.64, 98.0031, 98.3347, 97.9623, 98.2382, 98.1965, 98.1489, 98.3373, 98.1588
1750.58, 97.9876, 98.3295, 97.9612, 98.2462, 98.2181, 98.1485, 98.3392, 98.1551
1750.52, 97.9744, 98.3233, 97.9598, 98.2542, 98.2355, 98.1513, 98.3371, 98.1553
1750.46, 97.9652, 98.316, 97.9578, 98.2618, 98.2474, 98.1574, 98.3324, 98.1594
1750.4, 97.9611, 98.3082, 97.9548, 98.2681, 98.2537, 98.166, 98.3264, 98.1669
1750.34, 97.9622, 98.3008, 97.9503, 98.2722, 98.2555, 98.1757, 98.32, 98.1764
1750.28, 97.9674, 98.2944, 97.9442, 98.2731, 98.2543, 98.1851, 98.3134, 98.1865
1750.22, 97.975, 98.2894, 97.9365, 98.2703, 98.252, 98.1926, 98.3062, 98.196
1750.16, 97.9835, 98.2861, 97.9279, 98.2635, 98.2503, 98.1974, 98.298, 98.2039
1750.1, 97.9913, 98.2841, 97.9192, 98.2529, 98.25, 98.1989, 98.2886, 98.2103
1750.04, 97.9977, 98.2832, 97.9117, 98.239, 98.2514, 98.1971, 98.2779, 98.2156
1749.98, 98.0027, 98.283, 97.9066, 98.2227, 98.2543, 98.1921, 98.2664, 98.2207
